{
  "spectrum": {
    "wavelength": [
      410.0,
      411.0,
      412.0,
      413.0,
      414.0,
      415.0,
      416.0,
      417.0,
      418.0,
      419.0,
      420.0,
      421.0,
      422.0,
      423.0,
      424.0,
      425.0,
      426.0,
      427.0,
      428.0,
      429.0,
      430.0,
      431.0,
      432.0,
      433.0,
      434.0,
      435.0,
      436.0,
      437.0,
      438.0,
      439.0,
      440.0,
      441.0,
      442.0,
      443.0,
      444.0,
      445.0,
      446.0,
      447.0,
      448.0,
      449.0,
      450.0,
      451.0,
      452.0,
      453.0,
      454.0,
      455.0,
      456.0,
      457.0,
      458.0,
      459.0,
      460.0,
      461.0,
      462.0,
      463.0,
      464.0,
      465.0,
      466.0,
      467.0,
      468.0,
      469.0,
      470.0,
      471.0,
      472.0,
      473.0,
      474.0,
      475.0,
      476.0,
      477.0,
      478.0,
      479.0,
      480.0,
      481.0,
      482.0,
      483.0,
      484.0,
      485.0,
      486.0,
      487.0,
      488.0,
      489.0,
      490.0,
      491.0,
      492.0,
      493.0,
      494.0,
      495.0,
      496.0,
      497.0,
      498.0,
      499.0,
      500.0,
      501.0,
      502.0,
      503.0,
      504.0,
      505.0,
      506.0,
      507.0,
      508.0,
      509.0,
      510.0,
      511.0,
      512.0,
      513.0,
      514.0,
      515.0,
      516.0,
      517.0,
      518.0,
      519.0,
      520.0,
      521.0,
      522.0,
      523.0,
      524.0,
      525.0,
      526.0,
      527.0,
      528.0,
      529.0,
      530.0,
      531.0,
      532.0,
      533.0,
      534.0,
      535.0,
      536.0,
      537.0,
      538.0,
      539.0,
      540.0,
      541.0,
      542.0,
      543.0,
      544.0,
      545.0,
      546.0,
      547.0,
      548.0,
      549.0,
      550.0,
      551.0,
      552.0,
      553.0,
      554.0,
      555.0,
      556.0,
      557.0,
      558.0,
      559.0,
      560.0,
      561.0,
      562.0,
      563.0,
      564.0,
      565.0,
      566.0,
      567.0,
      568.0,
      569.0,
      570.0,
      571.0,
      572.0,
      573.0,
      574.0,
      575.0,
      576.0,
      577.0,
      578.0,
      579.0,
      580.0,
      581.0,
      582.0,
      583.0,
      584.0,
      585.0,
      586.0,
      587.0,
      588.0,
      589.0
    ],
    "reflectance": [
      0.74899,
      0.74809,
      0.7486,
      0.74735,
      0.749,
      0.74812,
      0.74877,
      0.74939,
      0.74945,
      0.74899,
      0.74888,
      0.74962,
      0.75094,
      0.75066,
      0.74998,
      0.75081,
      0.75239,
      0.75201,
      0.75198,
      0.75266,
      0.75124,
      0.7526,
      0.75169,
      0.75269,
      0.75312,
      0.75417,
      0.75304,
      0.75305,
      0.75337,
      0.75311,
      0.75449,
      0.75312,
      0.75361,
      0.75432,
      0.75429,
      0.75326,
      0.75437,
      0.75499,
      0.75434,
      0.75581,
      0.75477,
      0.75451,
      0.75504,
      0.75537,
      0.75448,
      0.75579,
      0.75495,
      0.75767,
      0.75609,
      0.75543,
      0.75556,
      0.75619,
      0.75607,
      0.75699,
      0.75681,
      0.75579,
      0.75514,
      0.75546,
      0.75621,
      0.75693,
      0.75655,
      0.75689,
      0.75682,
      0.75703,
      0.75635,
      0.75674,
      0.75643,
      0.75739,
      0.75754,
      0.75723,
      0.75636,
      0.75764,
      0.75803,
      0.75664,
      0.75675,
      0.75864,
      0.75739,
      0.75854,
      0.75816,
      0.75871,
      0.75763,
      0.75855,
      0.75794,
      0.75838,
      0.75756,
      0.75912,
      0.75816,
      0.75917,
      0.75794,
      0.75891,
      0.75831,
      0.75847,
      0.75842,
      0.75814,
      0.75921,
      0.75945,
      0.75977,
      0.75911,
      0.75982,
      0.75924,
      0.75951,
      0.75906,
      0.75977,
      0.76,
      0.75919,
      0.76029,
      0.759,
      0.75927,
      0.75939,
      0.76034,
      0.7599,
      0.76035,
      0.76022,
      0.75945,
      0.75992,
      0.75996,
      0.75977,
      0.76038,
      0.76096,
      0.76036,
      0.76076,
      0.76009,
      0.7603,
      0.76046,
      0.7609,
      0.76088,
      0.7604,
      0.76058,
      0.76103,
      0.76073,
      0.76078,
      0.76137,
      0.76128,
      0.76174,
      0.76166,
      0.76147,
      0.76163,
      0.76156,
      0.7615,
      0.76221,
      0.76145,
      0.76208,
      0.76173,
      0.76156,
      0.762,
      0.7618,
      0.76207,
      0.76183,
      0.76173,
      0.76201,
      0.76206,
      0.76231,
      0.76223,
      0.76182,
      0.76182,
      0.76251,
      0.76238,
      0.76203,
      0.76156,
      0.76247,
      0.76291,
      0.76212,
      0.7621,
      0.76219,
      0.76219,
      0.76247,
      0.76282,
      0.7626,
      0.7626,
      0.7622,
      0.76262,
      0.76211,
      0.76232,
      0.76247,
      0.76254,
      0.76248,
      0.76199,
      0.76247,
      0.76216,
      0.76311
    ],
    "error": [
      0.00775,
      0.00773,
      0.00752,
      0.00738,
      0.0076,
      0.00787,
      0.00741,
      0.00785,
      0.00741,
      0.00745,
      0.00727,
      0.00768,
      0.00756,
      0.00717,
      0.00733,
      0.00727,
      0.00718,
      0.00726,
      0.00746,
      0.00743,
      0.00694,
      0.00683,
      0.00711,
      0.00742,
      0.00735,
      0.00719,
      0.00754,
      0.0072,
      0.00703,
      0.00751,
      0.00761,
      0.00695,
      0.00712,
      0.00748,
      0.00752,
      0.00678,
      0.00646,
      0.00718,
      0.00714,
      0.00708,
      0.00677,
      0.00763,
      0.00705,
      0.00743,
      0.00689,
      0.00756,
      0.00684,
      0.00765,
      0.00698,
      0.00685,
      0.00692,
      0.00665,
      0.00691,
      0.0078,
      0.00732,
      0.00735,
      0.00732,
      0.0071,
      0.00714,
      0.00714,
      0.00701,
      0.00739,
      0.00704,
      0.00747,
      0.00691,
      0.00741,
      0.00739,
      0.00765,
      0.00718,
      0.007,
      0.0074,
      0.00731,
      0.00713,
      0.00741,
      0.00709,
      0.00727,
      0.00694,
      0.0074,
      0.0077,
      0.00739,
      0.00708,
      0.00712,
      0.0076,
      0.0073,
      0.00751,
      0.00737,
      0.00735,
      0.00704,
      0.00742,
      0.00718,
      0.00712,
      0.00711,
      0.00714,
      0.00707,
      0.00707,
      0.00714,
      0.00684,
      0.0071,
      0.00705,
      0.00695,
      0.00709,
      0.00705,
      0.00752,
      0.007,
      0.00708,
      0.00688,
      0.00699,
      0.00734,
      0.00723,
      0.0073,
      0.00735,
      0.00705,
      0.00741,
      0.00715,
      0.00731,
      0.00731,
      0.00706,
      0.00709,
      0.00689,
      0.00692,
      0.00714,
      0.00733,
      0.00712,
      0.00744,
      0.00714,
      0.00711,
      0.00707,
      0.00715,
      0.00741,
      0.0074,
      0.00725,
      0.00713,
      0.00698,
      0.007,
      0.00731,
      0.00741,
      0.00708,
      0.00691,
      0.00696,
      0.00679,
      0.00724,
      0.00708,
      0.00704,
      0.00717,
      0.00725,
      0.00756,
      0.0073,
      0.00745,
      0.00727,
      0.00732,
      0.00729,
      0.00712,
      0.00709,
      0.00746,
      0.00702,
      0.00719,
      0.00703,
      0.00709,
      0.00711,
      0.00725,
      0.00748,
      0.00756,
      0.00727,
      0.00743,
      0.00705,
      0.0071,
      0.00728,
      0.00703,
      0.00719,
      0.00776,
      0.00744,
      0.00746,
      0.00738,
      0.00692,
      0.00748,
      0.00749,
      0.00682,
      0.00726,
      0.00686,
      0.00727
    ]
  },
  "grain_size": {
    "min": 0,
    "max": 45,
    "unit": "micrometer"
  },
  "abundances": [],
  "description": "Spectrum downloaded from RELAB Spectral Database",
  "version": "0.0.1"
}