{
  "spectrum": {
    "wavelength": [
      410.0,
      411.0,
      412.0,
      413.0,
      414.0,
      415.0,
      416.0,
      417.0,
      418.0,
      419.0,
      420.0,
      421.0,
      422.0,
      423.0,
      424.0,
      425.0,
      426.0,
      427.0,
      428.0,
      429.0,
      430.0,
      431.0,
      432.0,
      433.0,
      434.0,
      435.0,
      436.0,
      437.0,
      438.0,
      439.0,
      440.0,
      441.0,
      442.0,
      443.0,
      444.0,
      445.0,
      446.0,
      447.0,
      448.0,
      449.0,
      450.0,
      451.0,
      452.0,
      453.0,
      454.0,
      455.0,
      456.0,
      457.0,
      458.0,
      459.0,
      460.0,
      461.0,
      462.0,
      463.0,
      464.0,
      465.0,
      466.0,
      467.0,
      468.0,
      469.0,
      470.0,
      471.0,
      472.0,
      473.0,
      474.0,
      475.0,
      476.0,
      477.0,
      478.0,
      479.0,
      480.0,
      481.0,
      482.0,
      483.0,
      484.0,
      485.0,
      486.0,
      487.0,
      488.0,
      489.0,
      490.0,
      491.0,
      492.0,
      493.0,
      494.0,
      495.0,
      496.0,
      497.0,
      498.0,
      499.0,
      500.0,
      501.0,
      502.0,
      503.0,
      504.0,
      505.0,
      506.0,
      507.0,
      508.0,
      509.0,
      510.0,
      511.0,
      512.0,
      513.0,
      514.0,
      515.0,
      516.0,
      517.0,
      518.0,
      519.0,
      520.0,
      521.0,
      522.0,
      523.0,
      524.0,
      525.0,
      526.0,
      527.0,
      528.0,
      529.0,
      530.0,
      531.0,
      532.0,
      533.0,
      534.0,
      535.0,
      536.0,
      537.0,
      538.0,
      539.0,
      540.0,
      541.0,
      542.0,
      543.0,
      544.0,
      545.0,
      546.0,
      547.0,
      548.0,
      549.0,
      550.0,
      551.0,
      552.0,
      553.0,
      554.0,
      555.0,
      556.0,
      557.0,
      558.0,
      559.0,
      560.0,
      561.0,
      562.0,
      563.0,
      564.0,
      565.0,
      566.0,
      567.0,
      568.0,
      569.0,
      570.0,
      571.0,
      572.0,
      573.0,
      574.0,
      575.0,
      576.0,
      577.0,
      578.0,
      579.0,
      580.0,
      581.0,
      582.0,
      583.0,
      584.0,
      585.0,
      586.0,
      587.0,
      588.0,
      589.0
    ],
    "reflectance": [
      0.42111,
      0.42408,
      0.42648,
      0.42872,
      0.43022,
      0.43231,
      0.43414,
      0.43566,
      0.43752,
      0.43896,
      0.44067,
      0.44233,
      0.44341,
      0.44512,
      0.44624,
      0.44719,
      0.44796,
      0.44867,
      0.4492,
      0.44949,
      0.45011,
      0.45058,
      0.45046,
      0.45054,
      0.45099,
      0.45125,
      0.45174,
      0.45144,
      0.45177,
      0.45222,
      0.4524,
      0.45314,
      0.45329,
      0.45335,
      0.45338,
      0.454,
      0.45397,
      0.45492,
      0.45466,
      0.45474,
      0.45503,
      0.45551,
      0.45571,
      0.45632,
      0.45666,
      0.45719,
      0.45796,
      0.45915,
      0.45984,
      0.4613,
      0.46229,
      0.46268,
      0.4639,
      0.46474,
      0.4662,
      0.46742,
      0.4687,
      0.47004,
      0.47104,
      0.47308,
      0.47436,
      0.47585,
      0.47738,
      0.47803,
      0.47965,
      0.48074,
      0.48121,
      0.48257,
      0.48355,
      0.48386,
      0.48451,
      0.48513,
      0.48618,
      0.48727,
      0.4867,
      0.48772,
      0.48779,
      0.48787,
      0.48902,
      0.48998,
      0.4911,
      0.49292,
      0.49379,
      0.49585,
      0.49731,
      0.49886,
      0.49935,
      0.50073,
      0.50191,
      0.50237,
      0.50321,
      0.5038,
      0.5043,
      0.50453,
      0.5034,
      0.50296,
      0.50241,
      0.50042,
      0.49986,
      0.50322,
      0.5058,
      0.50714,
      0.50987,
      0.51238,
      0.51494,
      0.51708,
      0.51903,
      0.52128,
      0.52317,
      0.52546,
      0.527,
      0.52808,
      0.52971,
      0.53154,
      0.53285,
      0.53403,
      0.53578,
      0.5368,
      0.53906,
      0.53966,
      0.54098,
      0.5419,
      0.54273,
      0.54413,
      0.54467,
      0.54588,
      0.54555,
      0.54627,
      0.54772,
      0.54774,
      0.54858,
      0.54892,
      0.54865,
      0.54992,
      0.54976,
      0.55012,
      0.55048,
      0.5507,
      0.55073,
      0.55082,
      0.55082,
      0.55179,
      0.55155,
      0.55283,
      0.55397,
      0.55511,
      0.55499,
      0.55613,
      0.55625,
      0.55747,
      0.5578,
      0.55732,
      0.55853,
      0.55903,
      0.55921,
      0.5598,
      0.5602,
      0.56017,
      0.56071,
      0.56066,
      0.56065,
      0.56151,
      0.56184,
      0.56164,
      0.56193,
      0.56215,
      0.56208,
      0.56218,
      0.56242,
      0.56242,
      0.56236,
      0.56236,
      0.56198,
      0.56186,
      0.56159,
      0.5615,
      0.56072,
      0.56056,
      0.56118,
      0.56125
    ],
    "error": [
      0.00489,
      0.00471,
      0.00459,
      0.00464,
      0.00453,
      0.00465,
      0.00454,
      0.00462,
      0.00447,
      0.00437,
      0.0045,
      0.00452,
      0.00435,
      0.00446,
      0.00446,
      0.00447,
      0.00449,
      0.00426,
      0.00453,
      0.00465,
      0.00447,
      0.00437,
      0.0044,
      0.00431,
      0.00455,
      0.00433,
      0.00442,
      0.00456,
      0.00443,
      0.00405,
      0.00424,
      0.00429,
      0.00443,
      0.00459,
      0.00464,
      0.00462,
      0.00454,
      0.00459,
      0.00458,
      0.00446,
      0.00421,
      0.00452,
      0.00455,
      0.00451,
      0.00435,
      0.0043,
      0.00432,
      0.00458,
      0.00454,
      0.00455,
      0.00441,
      0.0044,
      0.0047,
      0.00436,
      0.00439,
      0.00436,
      0.0042,
      0.00439,
      0.00435,
      0.0042,
      0.00435,
      0.00404,
      0.00458,
      0.00472,
      0.00456,
      0.00434,
      0.00451,
      0.00466,
      0.00459,
      0.00449,
      0.00468,
      0.00459,
      0.00426,
      0.00484,
      0.00465,
      0.00468,
      0.0046,
      0.0047,
      0.00423,
      0.00462,
      0.00457,
      0.00463,
      0.00487,
      0.00483,
      0.00479,
      0.0045,
      0.00473,
      0.00459,
      0.00457,
      0.00472,
      0.00461,
      0.0047,
      0.00474,
      0.00469,
      0.00472,
      0.00487,
      0.0046,
      0.00487,
      0.00463,
      0.00479,
      0.00491,
      0.00466,
      0.00458,
      0.00498,
      0.00521,
      0.00478,
      0.00459,
      0.00501,
      0.00485,
      0.00474,
      0.00488,
      0.0047,
      0.00497,
      0.00508,
      0.00489,
      0.00488,
      0.00506,
      0.00516,
      0.00498,
      0.00505,
      0.00513,
      0.00511,
      0.00491,
      0.00519,
      0.00516,
      0.00528,
      0.00512,
      0.00534,
      0.00514,
      0.00511,
      0.00502,
      0.00517,
      0.00534,
      0.00525,
      0.00508,
      0.00554,
      0.00501,
      0.00501,
      0.00506,
      0.00503,
      0.00511,
      0.005,
      0.00499,
      0.00502,
      0.00491,
      0.00493,
      0.00516,
      0.00498,
      0.00544,
      0.00511,
      0.00514,
      0.00532,
      0.00551,
      0.00514,
      0.00532,
      0.0054,
      0.00509,
      0.0053,
      0.00534,
      0.00515,
      0.00494,
      0.00535,
      0.00537,
      0.00525,
      0.00525,
      0.00531,
      0.0053,
      0.00532,
      0.00522,
      0.00505,
      0.00519,
      0.00493,
      0.00549,
      0.00548,
      0.00537,
      0.00522,
      0.00532,
      0.00547,
      0.00522,
      0.00519
    ]
  },
  "grain_size": {
    "min": 0,
    "max": 100,
    "unit": "micrometer"
  },
  "abundances": [],
  "description": "Spectrum downloaded from RELAB Spectral Database",
  "version": "0.0.1"
}