{
  "spectrum": {
    "wavelength": [
      410.0,
      411.0,
      412.0,
      413.0,
      414.0,
      415.0,
      416.0,
      417.0,
      418.0,
      419.0,
      420.0,
      421.0,
      422.0,
      423.0,
      424.0,
      425.0,
      426.0,
      427.0,
      428.0,
      429.0,
      430.0,
      431.0,
      432.0,
      433.0,
      434.0,
      435.0,
      436.0,
      437.0,
      438.0,
      439.0,
      440.0,
      441.0,
      442.0,
      443.0,
      444.0,
      445.0,
      446.0,
      447.0,
      448.0,
      449.0,
      450.0,
      451.0,
      452.0,
      453.0,
      454.0,
      455.0,
      456.0,
      457.0,
      458.0,
      459.0,
      460.0,
      461.0,
      462.0,
      463.0,
      464.0,
      465.0,
      466.0,
      467.0,
      468.0,
      469.0,
      470.0,
      471.0,
      472.0,
      473.0,
      474.0,
      475.0,
      476.0,
      477.0,
      478.0,
      479.0,
      480.0,
      481.0,
      482.0,
      483.0,
      484.0,
      485.0,
      486.0,
      487.0,
      488.0,
      489.0,
      490.0,
      491.0,
      492.0,
      493.0,
      494.0,
      495.0,
      496.0,
      497.0,
      498.0,
      499.0,
      500.0,
      501.0,
      502.0,
      503.0,
      504.0,
      505.0,
      506.0,
      507.0,
      508.0,
      509.0,
      510.0,
      511.0,
      512.0,
      513.0,
      514.0,
      515.0,
      516.0,
      517.0,
      518.0,
      519.0,
      520.0,
      521.0,
      522.0,
      523.0,
      524.0,
      525.0,
      526.0,
      527.0,
      528.0,
      529.0,
      530.0,
      531.0,
      532.0,
      533.0,
      534.0,
      535.0,
      536.0,
      537.0,
      538.0,
      539.0,
      540.0,
      541.0,
      542.0,
      543.0,
      544.0,
      545.0,
      546.0,
      547.0,
      548.0,
      549.0,
      550.0,
      551.0,
      552.0,
      553.0,
      554.0,
      555.0,
      556.0,
      557.0,
      558.0,
      559.0,
      560.0,
      561.0,
      562.0,
      563.0,
      564.0,
      565.0,
      566.0,
      567.0,
      568.0,
      569.0,
      570.0,
      571.0,
      572.0,
      573.0,
      574.0,
      575.0,
      576.0,
      577.0,
      578.0,
      579.0,
      580.0,
      581.0,
      582.0,
      583.0,
      584.0,
      585.0,
      586.0,
      587.0,
      588.0,
      589.0
    ],
    "reflectance": [
      0.18093,
      0.18302,
      0.18428,
      0.18581,
      0.18688,
      0.18843,
      0.18948,
      0.19093,
      0.19184,
      0.19289,
      0.19413,
      0.19547,
      0.19628,
      0.1974,
      0.19843,
      0.1995,
      0.20032,
      0.20132,
      0.20195,
      0.20237,
      0.20341,
      0.2039,
      0.2044,
      0.2047,
      0.20532,
      0.20535,
      0.20575,
      0.20622,
      0.20635,
      0.20688,
      0.20724,
      0.20756,
      0.20796,
      0.20834,
      0.20886,
      0.20896,
      0.20962,
      0.20969,
      0.21055,
      0.21064,
      0.21101,
      0.21142,
      0.21217,
      0.21258,
      0.21327,
      0.21406,
      0.21475,
      0.21568,
      0.21654,
      0.21762,
      0.21858,
      0.21949,
      0.22033,
      0.22137,
      0.22208,
      0.22315,
      0.22437,
      0.22505,
      0.22603,
      0.22704,
      0.22831,
      0.22936,
      0.2304,
      0.23131,
      0.23214,
      0.23272,
      0.2335,
      0.23432,
      0.23523,
      0.23588,
      0.23654,
      0.23724,
      0.2377,
      0.23819,
      0.23892,
      0.23902,
      0.23965,
      0.24056,
      0.24076,
      0.24155,
      0.24218,
      0.24302,
      0.24379,
      0.2441,
      0.24548,
      0.24581,
      0.24559,
      0.24658,
      0.24759,
      0.24736,
      0.24856,
      0.24818,
      0.24822,
      0.24904,
      0.24823,
      0.24898,
      0.24814,
      0.24802,
      0.24846,
      0.24868,
      0.25028,
      0.25232,
      0.25506,
      0.25577,
      0.25742,
      0.25969,
      0.26069,
      0.26251,
      0.26406,
      0.26523,
      0.26661,
      0.26775,
      0.26978,
      0.27141,
      0.27257,
      0.27338,
      0.27476,
      0.27625,
      0.27716,
      0.2779,
      0.27897,
      0.28057,
      0.28131,
      0.28185,
      0.28293,
      0.28312,
      0.28393,
      0.28504,
      0.28657,
      0.28811,
      0.28878,
      0.28854,
      0.289,
      0.28886,
      0.28942,
      0.29061,
      0.29105,
      0.29112,
      0.29142,
      0.2921,
      0.29301,
      0.29411,
      0.29385,
      0.29414,
      0.2946,
      0.29464,
      0.29595,
      0.29713,
      0.29751,
      0.29747,
      0.29859,
      0.29957,
      0.29989,
      0.30084,
      0.30164,
      0.30168,
      0.30126,
      0.30077,
      0.30096,
      0.30223,
      0.30276,
      0.3029,
      0.30222,
      0.30222,
      0.30289,
      0.30342,
      0.30394,
      0.30384,
      0.30401,
      0.30466,
      0.30547,
      0.30593,
      0.3061,
      0.30629,
      0.3062,
      0.30653,
      0.3068,
      0.30714,
      0.30761,
      0.30788
    ],
    "error": [
      0.00331,
      0.00331,
      0.00334,
      0.0032,
      0.003,
      0.00296,
      0.0029,
      0.00285,
      0.00277,
      0.00284,
      0.00272,
      0.00277,
      0.00282,
      0.00289,
      0.00281,
      0.00293,
      0.00263,
      0.00246,
      0.00269,
      0.00268,
      0.00264,
      0.0025,
      0.00256,
      0.00254,
      0.0026,
      0.00274,
      0.00255,
      0.00265,
      0.00286,
      0.00274,
      0.00255,
      0.00288,
      0.00264,
      0.00243,
      0.00272,
      0.00251,
      0.00226,
      0.00238,
      0.00221,
      0.0024,
      0.00235,
      0.00259,
      0.00224,
      0.00248,
      0.0025,
      0.00245,
      0.00255,
      0.00234,
      0.00262,
      0.00235,
      0.0024,
      0.00284,
      0.00291,
      0.00281,
      0.00267,
      0.00259,
      0.00255,
      0.00296,
      0.00279,
      0.00324,
      0.00274,
      0.00278,
      0.00272,
      0.00263,
      0.00259,
      0.00267,
      0.00323,
      0.00289,
      0.00255,
      0.00279,
      0.00267,
      0.00308,
      0.00268,
      0.00292,
      0.00275,
      0.0031,
      0.00258,
      0.00241,
      0.00293,
      0.00271,
      0.00358,
      0.00318,
      0.00382,
      0.00416,
      0.00333,
      0.00461,
      0.00498,
      0.00427,
      0.0059,
      0.00571,
      0.00565,
      0.00709,
      0.00632,
      0.00694,
      0.0084,
      0.00797,
      0.0094,
      0.00844,
      0.00823,
      0.00891,
      0.00792,
      0.00801,
      0.0075,
      0.00951,
      0.0096,
      0.0093,
      0.01148,
      0.01097,
      0.01134,
      0.01196,
      0.01141,
      0.01123,
      0.01122,
      0.01049,
      0.01153,
      0.01193,
      0.01178,
      0.01097,
      0.01164,
      0.01241,
      0.01208,
      0.01123,
      0.01162,
      0.01327,
      0.01341,
      0.01306,
      0.01194,
      0.01194,
      0.00979,
      0.00878,
      0.01055,
      0.01163,
      0.01252,
      0.01261,
      0.01115,
      0.01067,
      0.01172,
      0.01263,
      0.01245,
      0.01144,
      0.01024,
      0.01119,
      0.01258,
      0.013,
      0.01241,
      0.01047,
      0.01072,
      0.01101,
      0.01148,
      0.01111,
      0.00937,
      0.0084,
      0.0078,
      0.00665,
      0.00801,
      0.00899,
      0.00985,
      0.00946,
      0.00921,
      0.00874,
      0.00899,
      0.00966,
      0.00955,
      0.00936,
      0.00858,
      0.00879,
      0.00933,
      0.00967,
      0.00972,
      0.00899,
      0.00856,
      0.00908,
      0.00932,
      0.00945,
      0.00954,
      0.00937,
      0.00846,
      0.00885,
      0.0084,
      0.00801
    ]
  },
  "grain_size": {
    "min": 0,
    "max": 100,
    "unit": "micrometer"
  },
  "abundances": [],
  "description": "Spectrum downloaded from RELAB Spectral Database",
  "version": "0.0.1"
}