{
  "spectrum": {
    "wavelength": [
      410.0,
      411.0,
      412.0,
      413.0,
      414.0,
      415.0,
      416.0,
      417.0,
      418.0,
      419.0,
      420.0,
      421.0,
      422.0,
      423.0,
      424.0,
      425.0,
      426.0,
      427.0,
      428.0,
      429.0,
      430.0,
      431.0,
      432.0,
      433.0,
      434.0,
      435.0,
      436.0,
      437.0,
      438.0,
      439.0,
      440.0,
      441.0,
      442.0,
      443.0,
      444.0,
      445.0,
      446.0,
      447.0,
      448.0,
      449.0,
      450.0,
      451.0,
      452.0,
      453.0,
      454.0,
      455.0,
      456.0,
      457.0,
      458.0,
      459.0,
      460.0,
      461.0,
      462.0,
      463.0,
      464.0,
      465.0,
      466.0,
      467.0,
      468.0,
      469.0,
      470.0,
      471.0,
      472.0,
      473.0,
      474.0,
      475.0,
      476.0,
      477.0,
      478.0,
      479.0,
      480.0,
      481.0,
      482.0,
      483.0,
      484.0,
      485.0,
      486.0,
      487.0,
      488.0,
      489.0,
      490.0,
      491.0,
      492.0,
      493.0,
      494.0,
      495.0,
      496.0,
      497.0,
      498.0,
      499.0,
      500.0,
      501.0,
      502.0,
      503.0,
      504.0,
      505.0,
      506.0,
      507.0,
      508.0,
      509.0,
      510.0,
      511.0,
      512.0,
      513.0,
      514.0,
      515.0,
      516.0,
      517.0,
      518.0,
      519.0,
      520.0,
      521.0,
      522.0,
      523.0,
      524.0,
      525.0,
      526.0,
      527.0,
      528.0,
      529.0,
      530.0,
      531.0,
      532.0,
      533.0,
      534.0,
      535.0,
      536.0,
      537.0,
      538.0,
      539.0,
      540.0,
      541.0,
      542.0,
      543.0,
      544.0,
      545.0,
      546.0,
      547.0,
      548.0,
      549.0,
      550.0,
      551.0,
      552.0,
      553.0,
      554.0,
      555.0,
      556.0,
      557.0,
      558.0,
      559.0,
      560.0,
      561.0,
      562.0,
      563.0,
      564.0,
      565.0,
      566.0,
      567.0,
      568.0,
      569.0,
      570.0,
      571.0,
      572.0,
      573.0,
      574.0,
      575.0,
      576.0,
      577.0,
      578.0,
      579.0,
      580.0,
      581.0,
      582.0,
      583.0,
      584.0,
      585.0,
      586.0,
      587.0,
      588.0,
      589.0
    ],
    "reflectance": [
      0.11364,
      0.11568,
      0.11686,
      0.11823,
      0.11945,
      0.12053,
      0.12159,
      0.12272,
      0.1236,
      0.12453,
      0.12549,
      0.12629,
      0.12696,
      0.12776,
      0.12852,
      0.12892,
      0.12947,
      0.12965,
      0.13024,
      0.1304,
      0.13058,
      0.13095,
      0.13103,
      0.13115,
      0.13133,
      0.13133,
      0.13109,
      0.1312,
      0.13086,
      0.13069,
      0.13046,
      0.13013,
      0.12994,
      0.12955,
      0.12929,
      0.12906,
      0.12895,
      0.12874,
      0.12845,
      0.12857,
      0.12855,
      0.12863,
      0.12889,
      0.12921,
      0.12946,
      0.13007,
      0.13043,
      0.13096,
      0.13161,
      0.13221,
      0.13301,
      0.13387,
      0.13476,
      0.13563,
      0.13644,
      0.1373,
      0.13813,
      0.13916,
      0.14011,
      0.14099,
      0.14196,
      0.14291,
      0.14373,
      0.14443,
      0.14532,
      0.14617,
      0.14711,
      0.14802,
      0.14875,
      0.14936,
      0.15028,
      0.15124,
      0.15197,
      0.15265,
      0.1534,
      0.15412,
      0.15464,
      0.15527,
      0.15599,
      0.15714,
      0.15804,
      0.15928,
      0.16035,
      0.16165,
      0.16258,
      0.16397,
      0.16521,
      0.16642,
      0.1679,
      0.16902,
      0.17041,
      0.17195,
      0.17336,
      0.17489,
      0.17626,
      0.17786,
      0.17914,
      0.18081,
      0.18185,
      0.18332,
      0.18486,
      0.1867,
      0.18856,
      0.19029,
      0.19211,
      0.19392,
      0.19552,
      0.19747,
      0.19917,
      0.20088,
      0.2025,
      0.20432,
      0.20588,
      0.2074,
      0.20924,
      0.21107,
      0.2125,
      0.21421,
      0.2158,
      0.21725,
      0.21893,
      0.22032,
      0.22203,
      0.2232,
      0.22465,
      0.22605,
      0.22741,
      0.22873,
      0.22994,
      0.23097,
      0.23235,
      0.2332,
      0.23436,
      0.23516,
      0.23615,
      0.23716,
      0.23788,
      0.23896,
      0.23951,
      0.24037,
      0.24108,
      0.24158,
      0.24231,
      0.24342,
      0.24424,
      0.2449,
      0.24563,
      0.24616,
      0.2468,
      0.24752,
      0.24834,
      0.24882,
      0.24929,
      0.24978,
      0.2503,
      0.25077,
      0.25112,
      0.25149,
      0.25198,
      0.25232,
      0.25269,
      0.25302,
      0.25319,
      0.25385,
      0.25379,
      0.25423,
      0.2543,
      0.25443,
      0.25467,
      0.25525,
      0.25512,
      0.25528,
      0.25537,
      0.25571,
      0.25546,
      0.25561,
      0.25567,
      0.25576,
      0.25581,
      0.2555
    ],
    "error": [
      0.00248,
      0.00243,
      0.0023,
      0.00225,
      0.00217,
      0.0021,
      0.00207,
      0.00206,
      0.00195,
      0.00199,
      0.00194,
      0.00188,
      0.00185,
      0.00186,
      0.00184,
      0.00183,
      0.00174,
      0.00175,
      0.00173,
      0.00173,
      0.00169,
      0.00163,
      0.0016,
      0.00162,
      0.00162,
      0.00165,
      0.00161,
      0.00159,
      0.00157,
      0.00159,
      0.0015,
      0.00145,
      0.00153,
      0.00149,
      0.00152,
      0.00147,
      0.00142,
      0.00147,
      0.00136,
      0.00148,
      0.00135,
      0.00149,
      0.0014,
      0.00142,
      0.00138,
      0.00142,
      0.00132,
      0.0014,
      0.00138,
      0.00143,
      0.00144,
      0.00139,
      0.00136,
      0.0014,
      0.00141,
      0.00144,
      0.00138,
      0.00139,
      0.00139,
      0.00142,
      0.00139,
      0.0014,
      0.00139,
      0.00145,
      0.00133,
      0.00147,
      0.00146,
      0.00147,
      0.00145,
      0.0015,
      0.0015,
      0.0015,
      0.00146,
      0.00146,
      0.00147,
      0.00144,
      0.00143,
      0.00135,
      0.00148,
      0.00141,
      0.00145,
      0.00155,
      0.00145,
      0.00149,
      0.00141,
      0.00143,
      0.00149,
      0.0015,
      0.00157,
      0.00148,
      0.00156,
      0.0015,
      0.00153,
      0.00155,
      0.00157,
      0.00158,
      0.00151,
      0.0016,
      0.00166,
      0.0016,
      0.00166,
      0.00166,
      0.0016,
      0.00166,
      0.00158,
      0.00166,
      0.00168,
      0.00177,
      0.00166,
      0.00166,
      0.00173,
      0.00184,
      0.00188,
      0.00176,
      0.00185,
      0.00177,
      0.00177,
      0.00177,
      0.00173,
      0.00185,
      0.00199,
      0.00195,
      0.00205,
      0.00201,
      0.00196,
      0.00186,
      0.00187,
      0.00189,
      0.00183,
      0.00199,
      0.0021,
      0.00193,
      0.00207,
      0.00198,
      0.002,
      0.00207,
      0.00194,
      0.00197,
      0.00201,
      0.00196,
      0.0019,
      0.002,
      0.00195,
      0.002,
      0.00204,
      0.00197,
      0.002,
      0.00205,
      0.00214,
      0.002,
      0.00215,
      0.00216,
      0.00212,
      0.00203,
      0.00213,
      0.00211,
      0.00206,
      0.00216,
      0.00213,
      0.00211,
      0.00213,
      0.00212,
      0.00211,
      0.0021,
      0.00206,
      0.00238,
      0.00218,
      0.00211,
      0.00211,
      0.00226,
      0.00209,
      0.00213,
      0.00217,
      0.0023,
      0.00203,
      0.00202,
      0.00205,
      0.00227,
      0.00211,
      0.00215
    ]
  },
  "grain_size": {
    "min": 0,
    "max": 100,
    "unit": "micrometer"
  },
  "abundances": [],
  "description": "Spectrum downloaded from RELAB Spectral Database",
  "version": "0.0.1"
}