{
  "spectrum": {
    "wavelength": [
      410.0,
      411.0,
      412.0,
      413.0,
      414.0,
      415.0,
      416.0,
      417.0,
      418.0,
      419.0,
      420.0,
      421.0,
      422.0,
      423.0,
      424.0,
      425.0,
      426.0,
      427.0,
      428.0,
      429.0,
      430.0,
      431.0,
      432.0,
      433.0,
      434.0,
      435.0,
      436.0,
      437.0,
      438.0,
      439.0,
      440.0,
      441.0,
      442.0,
      443.0,
      444.0,
      445.0,
      446.0,
      447.0,
      448.0,
      449.0,
      450.0,
      451.0,
      452.0,
      453.0,
      454.0,
      455.0,
      456.0,
      457.0,
      458.0,
      459.0,
      460.0,
      461.0,
      462.0,
      463.0,
      464.0,
      465.0,
      466.0,
      467.0,
      468.0,
      469.0,
      470.0,
      471.0,
      472.0,
      473.0,
      474.0,
      475.0,
      476.0,
      477.0,
      478.0,
      479.0,
      480.0,
      481.0,
      482.0,
      483.0,
      484.0,
      485.0,
      486.0,
      487.0,
      488.0,
      489.0,
      490.0,
      491.0,
      492.0,
      493.0,
      494.0,
      495.0,
      496.0,
      497.0,
      498.0,
      499.0,
      500.0,
      501.0,
      502.0,
      503.0,
      504.0,
      505.0,
      506.0,
      507.0,
      508.0,
      509.0,
      510.0,
      511.0,
      512.0,
      513.0,
      514.0,
      515.0,
      516.0,
      517.0,
      518.0,
      519.0,
      520.0,
      521.0,
      522.0,
      523.0,
      524.0,
      525.0,
      526.0,
      527.0,
      528.0,
      529.0,
      530.0,
      531.0,
      532.0,
      533.0,
      534.0,
      535.0,
      536.0,
      537.0,
      538.0,
      539.0,
      540.0,
      541.0,
      542.0,
      543.0,
      544.0,
      545.0,
      546.0,
      547.0,
      548.0,
      549.0,
      550.0,
      551.0,
      552.0,
      553.0,
      554.0,
      555.0,
      556.0,
      557.0,
      558.0,
      559.0,
      560.0,
      561.0,
      562.0,
      563.0,
      564.0,
      565.0,
      566.0,
      567.0,
      568.0,
      569.0,
      570.0,
      571.0,
      572.0,
      573.0,
      574.0,
      575.0,
      576.0,
      577.0,
      578.0,
      579.0,
      580.0,
      581.0,
      582.0,
      583.0,
      584.0,
      585.0,
      586.0,
      587.0,
      588.0,
      589.0
    ],
    "reflectance": [
      0.6988,
      0.70107,
      0.70204,
      0.70352,
      0.70536,
      0.70595,
      0.70697,
      0.70881,
      0.70962,
      0.71052,
      0.71214,
      0.71278,
      0.71438,
      0.71551,
      0.71585,
      0.71656,
      0.71767,
      0.71817,
      0.71869,
      0.71962,
      0.71959,
      0.71917,
      0.7204,
      0.71985,
      0.71966,
      0.71991,
      0.72045,
      0.72115,
      0.72101,
      0.72199,
      0.72234,
      0.72242,
      0.7245,
      0.7239,
      0.72491,
      0.72531,
      0.72529,
      0.72512,
      0.72555,
      0.7266,
      0.72562,
      0.72641,
      0.72733,
      0.72645,
      0.72785,
      0.72855,
      0.7287,
      0.72897,
      0.72903,
      0.73081,
      0.73163,
      0.73188,
      0.73289,
      0.7331,
      0.73289,
      0.73423,
      0.73517,
      0.73577,
      0.73734,
      0.73779,
      0.73883,
      0.73991,
      0.74081,
      0.74103,
      0.74256,
      0.74229,
      0.74302,
      0.74392,
      0.74334,
      0.74463,
      0.74485,
      0.74534,
      0.74583,
      0.74646,
      0.74666,
      0.74746,
      0.74732,
      0.7472,
      0.74794,
      0.74796,
      0.74884,
      0.74936,
      0.75042,
      0.75165,
      0.75249,
      0.75281,
      0.7539,
      0.75451,
      0.75405,
      0.75479,
      0.7549,
      0.75411,
      0.7554,
      0.75464,
      0.75415,
      0.75255,
      0.75159,
      0.74985,
      0.74839,
      0.75049,
      0.75241,
      0.75422,
      0.75462,
      0.75677,
      0.758,
      0.75884,
      0.75998,
      0.76126,
      0.76206,
      0.76273,
      0.7627,
      0.76305,
      0.76416,
      0.76386,
      0.76474,
      0.76591,
      0.76586,
      0.7662,
      0.76622,
      0.76646,
      0.76772,
      0.76739,
      0.76713,
      0.76811,
      0.76833,
      0.76875,
      0.76883,
      0.76916,
      0.76903,
      0.76884,
      0.76884,
      0.76985,
      0.76976,
      0.7685,
      0.76874,
      0.76895,
      0.76877,
      0.76817,
      0.7685,
      0.76823,
      0.76851,
      0.76835,
      0.769,
      0.76946,
      0.7696,
      0.77049,
      0.77032,
      0.77078,
      0.77161,
      0.77107,
      0.77202,
      0.77191,
      0.7727,
      0.77253,
      0.77236,
      0.77261,
      0.77263,
      0.77318,
      0.77298,
      0.77292,
      0.77276,
      0.77234,
      0.77311,
      0.77357,
      0.77336,
      0.77248,
      0.77256,
      0.77287,
      0.77258,
      0.77247,
      0.77307,
      0.772,
      0.77241,
      0.7716,
      0.77236,
      0.77148,
      0.77079,
      0.77114,
      0.77055,
      0.77012
    ],
    "error": [
      0.00901,
      0.00878,
      0.0088,
      0.00875,
      0.00864,
      0.00899,
      0.0085,
      0.00869,
      0.00859,
      0.00879,
      0.00807,
      0.00879,
      0.00881,
      0.00938,
      0.00895,
      0.00861,
      0.00903,
      0.00908,
      0.00845,
      0.00856,
      0.00938,
      0.00887,
      0.0084,
      0.00903,
      0.00915,
      0.00893,
      0.00884,
      0.00894,
      0.00878,
      0.00918,
      0.00895,
      0.00886,
      0.00888,
      0.00893,
      0.00899,
      0.00902,
      0.00904,
      0.00945,
      0.00911,
      0.00882,
      0.00934,
      0.00906,
      0.00912,
      0.00918,
      0.00957,
      0.0086,
      0.00883,
      0.00921,
      0.00907,
      0.00961,
      0.00982,
      0.00954,
      0.00963,
      0.00979,
      0.0096,
      0.00981,
      0.00883,
      0.00921,
      0.00942,
      0.00925,
      0.01001,
      0.00972,
      0.00979,
      0.00923,
      0.00921,
      0.00966,
      0.01012,
      0.00953,
      0.00997,
      0.01015,
      0.01027,
      0.00983,
      0.00937,
      0.00888,
      0.00918,
      0.00954,
      0.00916,
      0.00923,
      0.00915,
      0.00931,
      0.00921,
      0.00985,
      0.01022,
      0.00938,
      0.00941,
      0.009,
      0.00938,
      0.00944,
      0.00977,
      0.01031,
      0.01002,
      0.00972,
      0.00966,
      0.00929,
      0.00926,
      0.00867,
      0.009,
      0.00945,
      0.00961,
      0.00994,
      0.00987,
      0.01039,
      0.01047,
      0.01041,
      0.0108,
      0.01067,
      0.01031,
      0.00984,
      0.00982,
      0.01,
      0.01002,
      0.01,
      0.01075,
      0.01055,
      0.01052,
      0.00979,
      0.00953,
      0.00934,
      0.00961,
      0.00987,
      0.01024,
      0.01044,
      0.01021,
      0.01029,
      0.00944,
      0.00943,
      0.00946,
      0.00922,
      0.00923,
      0.0086,
      0.00895,
      0.00872,
      0.00869,
      0.00943,
      0.00925,
      0.00949,
      0.00891,
      0.0088,
      0.00823,
      0.00835,
      0.0085,
      0.00857,
      0.00862,
      0.00924,
      0.00936,
      0.00893,
      0.00829,
      0.00818,
      0.00798,
      0.00788,
      0.00825,
      0.00769,
      0.00766,
      0.00738,
      0.00787,
      0.00803,
      0.00829,
      0.00807,
      0.00817,
      0.00785,
      0.00784,
      0.00774,
      0.00761,
      0.0074,
      0.00773,
      0.00814,
      0.00811,
      0.00837,
      0.00775,
      0.00748,
      0.00737,
      0.00771,
      0.00794,
      0.00782,
      0.00794,
      0.00797,
      0.0083,
      0.00841,
      0.00843,
      0.00823
    ]
  },
  "grain_size": {
    "min": 0,
    "max": 100,
    "unit": "micrometer"
  },
  "abundances": [],
  "description": "Spectrum downloaded from RELAB Spectral Database",
  "version": "0.0.1"
}