{
  "spectrum": {
    "wavelength": [
      410.0,
      411.0,
      412.0,
      413.0,
      414.0,
      415.0,
      416.0,
      417.0,
      418.0,
      419.0,
      420.0,
      421.0,
      422.0,
      423.0,
      424.0,
      425.0,
      426.0,
      427.0,
      428.0,
      429.0,
      430.0,
      431.0,
      432.0,
      433.0,
      434.0,
      435.0,
      436.0,
      437.0,
      438.0,
      439.0,
      440.0,
      441.0,
      442.0,
      443.0,
      444.0,
      445.0,
      446.0,
      447.0,
      448.0,
      449.0,
      450.0,
      451.0,
      452.0,
      453.0,
      454.0,
      455.0,
      456.0,
      457.0,
      458.0,
      459.0,
      460.0,
      461.0,
      462.0,
      463.0,
      464.0,
      465.0,
      466.0,
      467.0,
      468.0,
      469.0,
      470.0,
      471.0,
      472.0,
      473.0,
      474.0,
      475.0,
      476.0,
      477.0,
      478.0,
      479.0,
      480.0,
      481.0,
      482.0,
      483.0,
      484.0,
      485.0,
      486.0,
      487.0,
      488.0,
      489.0,
      490.0,
      491.0,
      492.0,
      493.0,
      494.0,
      495.0,
      496.0,
      497.0,
      498.0,
      499.0,
      500.0,
      501.0,
      502.0,
      503.0,
      504.0,
      505.0,
      506.0,
      507.0,
      508.0,
      509.0,
      510.0,
      511.0,
      512.0,
      513.0,
      514.0,
      515.0,
      516.0,
      517.0,
      518.0,
      519.0,
      520.0,
      521.0,
      522.0,
      523.0,
      524.0,
      525.0,
      526.0,
      527.0,
      528.0,
      529.0,
      530.0,
      531.0,
      532.0,
      533.0,
      534.0,
      535.0,
      536.0,
      537.0,
      538.0,
      539.0,
      540.0,
      541.0,
      542.0,
      543.0,
      544.0,
      545.0,
      546.0,
      547.0,
      548.0,
      549.0,
      550.0,
      551.0,
      552.0,
      553.0,
      554.0,
      555.0,
      556.0,
      557.0,
      558.0,
      559.0,
      560.0,
      561.0,
      562.0,
      563.0,
      564.0,
      565.0,
      566.0,
      567.0,
      568.0,
      569.0,
      570.0,
      571.0,
      572.0,
      573.0,
      574.0,
      575.0,
      576.0,
      577.0,
      578.0,
      579.0,
      580.0,
      581.0,
      582.0,
      583.0,
      584.0,
      585.0,
      586.0,
      587.0,
      588.0,
      589.0
    ],
    "reflectance": [
      0.60029,
      0.6002,
      0.59973,
      0.59968,
      0.59957,
      0.59977,
      0.59972,
      0.59985,
      0.60021,
      0.60016,
      0.60028,
      0.60009,
      0.60017,
      0.60099,
      0.60084,
      0.6002,
      0.60044,
      0.60023,
      0.60093,
      0.60109,
      0.60071,
      0.60101,
      0.60113,
      0.60109,
      0.60094,
      0.60106,
      0.60145,
      0.60139,
      0.60146,
      0.6008,
      0.6009,
      0.60116,
      0.60288,
      0.60062,
      0.60063,
      0.60123,
      0.60136,
      0.60058,
      0.60113,
      0.60121,
      0.60081,
      0.60129,
      0.60125,
      0.6017,
      0.60142,
      0.60167,
      0.60122,
      0.60138,
      0.6016,
      0.60124,
      0.60146,
      0.60195,
      0.60091,
      0.60122,
      0.60128,
      0.60159,
      0.60125,
      0.60099,
      0.60081,
      0.60117,
      0.60134,
      0.60143,
      0.60156,
      0.60133,
      0.60122,
      0.60217,
      0.6021,
      0.60133,
      0.60217,
      0.60242,
      0.60151,
      0.60178,
      0.60173,
      0.60177,
      0.60215,
      0.59921,
      0.60212,
      0.60203,
      0.60128,
      0.60176,
      0.60137,
      0.60135,
      0.60131,
      0.60123,
      0.60199,
      0.60151,
      0.60187,
      0.60193,
      0.60225,
      0.60203,
      0.60183,
      0.60163,
      0.60201,
      0.60224,
      0.60205,
      0.60183,
      0.60193,
      0.60178,
      0.60176,
      0.60227,
      0.60232,
      0.6018,
      0.60189,
      0.6023,
      0.60206,
      0.60183,
      0.60133,
      0.60165,
      0.60107,
      0.60143,
      0.60169,
      0.60158,
      0.60195,
      0.60172,
      0.60168,
      0.60196,
      0.6021,
      0.60177,
      0.60204,
      0.60223,
      0.60231,
      0.60154,
      0.60179,
      0.60169,
      0.60191,
      0.60194,
      0.60244,
      0.60198,
      0.60171,
      0.60174,
      0.602,
      0.60174,
      0.60158,
      0.60421,
      0.60069,
      0.60205,
      0.60225,
      0.60179,
      0.6021,
      0.60202,
      0.60138,
      0.60196,
      0.6015,
      0.60182,
      0.60192,
      0.60185,
      0.60168,
      0.60093,
      0.60113,
      0.60097,
      0.60142,
      0.60148,
      0.60182,
      0.60114,
      0.60161,
      0.60154,
      0.6013,
      0.60124,
      0.60138,
      0.60146,
      0.60165,
      0.60143,
      0.60124,
      0.60131,
      0.60111,
      0.60133,
      0.60158,
      0.60178,
      0.60138,
      0.60131,
      0.60172,
      0.6014,
      0.60149,
      0.60122,
      0.60099,
      0.6015,
      0.60147,
      0.60162,
      0.60167,
      0.6014
    ],
    "error": [
      0.0109,
      0.01103,
      0.0112,
      0.01145,
      0.01085,
      0.01121,
      0.01107,
      0.01057,
      0.01072,
      0.01104,
      0.01092,
      0.01076,
      0.01126,
      0.01119,
      0.01137,
      0.01127,
      0.01119,
      0.01128,
      0.01154,
      0.01107,
      0.01089,
      0.01142,
      0.01024,
      0.01122,
      0.01108,
      0.01159,
      0.01126,
      0.01119,
      0.01114,
      0.01164,
      0.01129,
      0.01102,
      0.01091,
      0.01083,
      0.01123,
      0.01156,
      0.01141,
      0.01139,
      0.01159,
      0.01115,
      0.01116,
      0.01082,
      0.01112,
      0.01151,
      0.01131,
      0.01181,
      0.01152,
      0.0115,
      0.01196,
      0.01148,
      0.01196,
      0.01191,
      0.01185,
      0.01129,
      0.01169,
      0.01149,
      0.01184,
      0.01135,
      0.0113,
      0.01181,
      0.01158,
      0.01159,
      0.01171,
      0.01092,
      0.01086,
      0.01165,
      0.01143,
      0.01144,
      0.01167,
      0.01134,
      0.0113,
      0.01195,
      0.01205,
      0.01205,
      0.01188,
      0.01086,
      0.01128,
      0.01172,
      0.01178,
      0.01174,
      0.0118,
      0.01209,
      0.01245,
      0.0122,
      0.01213,
      0.01242,
      0.01216,
      0.01209,
      0.01134,
      0.01152,
      0.01134,
      0.01167,
      0.01194,
      0.01159,
      0.01183,
      0.01178,
      0.01148,
      0.01195,
      0.01207,
      0.01196,
      0.01207,
      0.012,
      0.01194,
      0.01137,
      0.0111,
      0.01188,
      0.0118,
      0.01191,
      0.01236,
      0.01183,
      0.01201,
      0.01204,
      0.01213,
      0.01233,
      0.01186,
      0.01194,
      0.01196,
      0.01204,
      0.01178,
      0.01159,
      0.01157,
      0.01179,
      0.0117,
      0.0118,
      0.01213,
      0.01208,
      0.01238,
      0.01235,
      0.01254,
      0.01236,
      0.01254,
      0.01213,
      0.01244,
      0.01257,
      0.01239,
      0.01227,
      0.01221,
      0.01186,
      0.01211,
      0.01197,
      0.01218,
      0.01224,
      0.01212,
      0.01237,
      0.01252,
      0.01257,
      0.01271,
      0.01289,
      0.01307,
      0.01323,
      0.01333,
      0.01262,
      0.0124,
      0.01225,
      0.01227,
      0.01227,
      0.0122,
      0.0121,
      0.01218,
      0.0119,
      0.01176,
      0.01219,
      0.01194,
      0.01215,
      0.01219,
      0.01222,
      0.01223,
      0.01197,
      0.01203,
      0.01235,
      0.01224,
      0.01234,
      0.01226,
      0.01236,
      0.01276,
      0.01291,
      0.01258,
      0.01232,
      0.01287,
      0.01234
    ]
  },
  "grain_size": {
    "min": 0,
    "max": 100,
    "unit": "micrometer"
  },
  "abundances": [],
  "description": "Spectrum downloaded from RELAB Spectral Database",
  "version": "0.0.1"
}