{
  "spectrum": {
    "wavelength": [
      410.0,
      411.0,
      412.0,
      413.0,
      414.0,
      415.0,
      416.0,
      417.0,
      418.0,
      419.0,
      420.0,
      421.0,
      422.0,
      423.0,
      424.0,
      425.0,
      426.0,
      427.0,
      428.0,
      429.0,
      430.0,
      431.0,
      432.0,
      433.0,
      434.0,
      435.0,
      436.0,
      437.0,
      438.0,
      439.0,
      440.0,
      441.0,
      442.0,
      443.0,
      444.0,
      445.0,
      446.0,
      447.0,
      448.0,
      449.0,
      450.0,
      451.0,
      452.0,
      453.0,
      454.0,
      455.0,
      456.0,
      457.0,
      458.0,
      459.0,
      460.0,
      461.0,
      462.0,
      463.0,
      464.0,
      465.0,
      466.0,
      467.0,
      468.0,
      469.0,
      470.0,
      471.0,
      472.0,
      473.0,
      474.0,
      475.0,
      476.0,
      477.0,
      478.0,
      479.0,
      480.0,
      481.0,
      482.0,
      483.0,
      484.0,
      485.0,
      486.0,
      487.0,
      488.0,
      489.0,
      490.0,
      491.0,
      492.0,
      493.0,
      494.0,
      495.0,
      496.0,
      497.0,
      498.0,
      499.0,
      500.0,
      501.0,
      502.0,
      503.0,
      504.0,
      505.0,
      506.0,
      507.0,
      508.0,
      509.0,
      510.0,
      511.0,
      512.0,
      513.0,
      514.0,
      515.0,
      516.0,
      517.0,
      518.0,
      519.0,
      520.0,
      521.0,
      522.0,
      523.0,
      524.0,
      525.0,
      526.0,
      527.0,
      528.0,
      529.0,
      530.0,
      531.0,
      532.0,
      533.0,
      534.0,
      535.0,
      536.0,
      537.0,
      538.0,
      539.0,
      540.0,
      541.0,
      542.0,
      543.0,
      544.0,
      545.0,
      546.0,
      547.0,
      548.0,
      549.0,
      550.0,
      551.0,
      552.0,
      553.0,
      554.0,
      555.0,
      556.0,
      557.0,
      558.0,
      559.0,
      560.0,
      561.0,
      562.0,
      563.0,
      564.0,
      565.0,
      566.0,
      567.0,
      568.0,
      569.0,
      570.0,
      571.0,
      572.0,
      573.0,
      574.0,
      575.0,
      576.0,
      577.0,
      578.0,
      579.0,
      580.0,
      581.0,
      582.0,
      583.0,
      584.0,
      585.0,
      586.0,
      587.0,
      588.0,
      589.0
    ],
    "reflectance": [
      0.23829,
      0.24049,
      0.24199,
      0.24333,
      0.24457,
      0.24593,
      0.24744,
      0.2485,
      0.24999,
      0.25113,
      0.25231,
      0.25386,
      0.25491,
      0.25619,
      0.25746,
      0.25879,
      0.25994,
      0.26067,
      0.26183,
      0.26254,
      0.26325,
      0.26468,
      0.26544,
      0.26632,
      0.26743,
      0.26841,
      0.2696,
      0.27045,
      0.27091,
      0.27162,
      0.27219,
      0.2725,
      0.2733,
      0.2739,
      0.27448,
      0.27496,
      0.27568,
      0.27634,
      0.2767,
      0.27769,
      0.27862,
      0.27888,
      0.27966,
      0.28045,
      0.28147,
      0.28235,
      0.28304,
      0.2838,
      0.2841,
      0.28429,
      0.28516,
      0.28587,
      0.2865,
      0.28728,
      0.2882,
      0.28899,
      0.28921,
      0.28966,
      0.29103,
      0.29158,
      0.29267,
      0.29344,
      0.29404,
      0.29446,
      0.29514,
      0.29546,
      0.29641,
      0.29693,
      0.29778,
      0.29821,
      0.29905,
      0.30017,
      0.30074,
      0.30171,
      0.30207,
      0.3026,
      0.30253,
      0.3029,
      0.30378,
      0.30435,
      0.30479,
      0.30577,
      0.30583,
      0.30662,
      0.30668,
      0.30766,
      0.30804,
      0.30968,
      0.31016,
      0.30985,
      0.31035,
      0.31165,
      0.31218,
      0.31231,
      0.31268,
      0.31407,
      0.31451,
      0.31415,
      0.31459,
      0.31545,
      0.31595,
      0.31665,
      0.31751,
      0.31738,
      0.31858,
      0.31887,
      0.319,
      0.31929,
      0.31968,
      0.3201,
      0.31966,
      0.3197,
      0.32036,
      0.3211,
      0.3219,
      0.32296,
      0.32299,
      0.32318,
      0.32309,
      0.32371,
      0.32371,
      0.32431,
      0.32448,
      0.32443,
      0.32547,
      0.32586,
      0.32668,
      0.3273,
      0.32725,
      0.32746,
      0.32757,
      0.3276,
      0.32787,
      0.32743,
      0.32759,
      0.32876,
      0.32844,
      0.32902,
      0.3291,
      0.32924,
      0.32823,
      0.32744,
      0.32763,
      0.32788,
      0.32759,
      0.32729,
      0.32757,
      0.3276,
      0.32841,
      0.32909,
      0.32958,
      0.3295,
      0.33016,
      0.33152,
      0.33222,
      0.33268,
      0.33274,
      0.33298,
      0.33292,
      0.33335,
      0.33285,
      0.33313,
      0.33309,
      0.33319,
      0.333,
      0.33359,
      0.33326,
      0.33315,
      0.33343,
      0.33405,
      0.3341,
      0.33421,
      0.33401,
      0.33483,
      0.33431,
      0.33458,
      0.33355,
      0.33403,
      0.33331,
      0.33293
    ],
    "error": [
      0.0037,
      0.00373,
      0.00371,
      0.00382,
      0.00355,
      0.00386,
      0.00379,
      0.00411,
      0.00366,
      0.0041,
      0.00355,
      0.00354,
      0.00364,
      0.0036,
      0.0034,
      0.00355,
      0.00332,
      0.00354,
      0.00335,
      0.00345,
      0.00346,
      0.00337,
      0.00328,
      0.0035,
      0.00341,
      0.00414,
      0.00378,
      0.00374,
      0.00398,
      0.00421,
      0.00403,
      0.00417,
      0.00447,
      0.00455,
      0.00465,
      0.00493,
      0.00537,
      0.00556,
      0.0052,
      0.00543,
      0.0048,
      0.00544,
      0.00538,
      0.00589,
      0.00565,
      0.00525,
      0.0052,
      0.00582,
      0.00612,
      0.00638,
      0.0065,
      0.00672,
      0.00697,
      0.00701,
      0.00717,
      0.00715,
      0.00704,
      0.00728,
      0.00725,
      0.00739,
      0.00675,
      0.00696,
      0.00691,
      0.00738,
      0.00699,
      0.00726,
      0.00706,
      0.00771,
      0.00682,
      0.00714,
      0.00681,
      0.00697,
      0.00635,
      0.00592,
      0.00618,
      0.00645,
      0.006,
      0.0061,
      0.00587,
      0.00594,
      0.006,
      0.00636,
      0.00635,
      0.00646,
      0.00661,
      0.00649,
      0.00761,
      0.00702,
      0.00718,
      0.0079,
      0.00788,
      0.00733,
      0.00733,
      0.00785,
      0.00757,
      0.0064,
      0.00673,
      0.00753,
      0.0073,
      0.0068,
      0.00728,
      0.00687,
      0.00693,
      0.00733,
      0.00682,
      0.00679,
      0.00711,
      0.00754,
      0.00741,
      0.00744,
      0.00776,
      0.00836,
      0.00783,
      0.0071,
      0.00825,
      0.00724,
      0.00747,
      0.00775,
      0.00804,
      0.00835,
      0.00877,
      0.00792,
      0.00843,
      0.0092,
      0.0089,
      0.00878,
      0.00882,
      0.00815,
      0.00798,
      0.00844,
      0.00903,
      0.00911,
      0.00872,
      0.00912,
      0.00959,
      0.00922,
      0.00889,
      0.00831,
      0.00909,
      0.00892,
      0.00939,
      0.01011,
      0.01033,
      0.01011,
      0.01015,
      0.01015,
      0.01022,
      0.01017,
      0.00969,
      0.0088,
      0.00867,
      0.0082,
      0.00737,
      0.00793,
      0.00748,
      0.00767,
      0.00718,
      0.00719,
      0.00765,
      0.00792,
      0.00789,
      0.00846,
      0.00791,
      0.00813,
      0.00767,
      0.00732,
      0.00759,
      0.00736,
      0.00695,
      0.00672,
      0.0066,
      0.0066,
      0.00752,
      0.00765,
      0.00771,
      0.00742,
      0.00808,
      0.00801,
      0.00783,
      0.00755
    ]
  },
  "grain_size": {
    "min": 0,
    "max": 100,
    "unit": "micrometer"
  },
  "abundances": [],
  "description": "Spectrum downloaded from RELAB Spectral Database",
  "version": "0.0.1"
}