{
  "spectrum": {
    "wavelength": [
      410.0,
      411.0,
      412.0,
      413.0,
      414.0,
      415.0,
      416.0,
      417.0,
      418.0,
      419.0,
      420.0,
      421.0,
      422.0,
      423.0,
      424.0,
      425.0,
      426.0,
      427.0,
      428.0,
      429.0,
      430.0,
      431.0,
      432.0,
      433.0,
      434.0,
      435.0,
      436.0,
      437.0,
      438.0,
      439.0,
      440.0,
      441.0,
      442.0,
      443.0,
      444.0,
      445.0,
      446.0,
      447.0,
      448.0,
      449.0,
      450.0,
      451.0,
      452.0,
      453.0,
      454.0,
      455.0,
      456.0,
      457.0,
      458.0,
      459.0,
      460.0,
      461.0,
      462.0,
      463.0,
      464.0,
      465.0,
      466.0,
      467.0,
      468.0,
      469.0,
      470.0,
      471.0,
      472.0,
      473.0,
      474.0,
      475.0,
      476.0,
      477.0,
      478.0,
      479.0,
      480.0,
      481.0,
      482.0,
      483.0,
      484.0,
      485.0,
      486.0,
      487.0,
      488.0,
      489.0,
      490.0,
      491.0,
      492.0,
      493.0,
      494.0,
      495.0,
      496.0,
      497.0,
      498.0,
      499.0,
      500.0,
      501.0,
      502.0,
      503.0,
      504.0,
      505.0,
      506.0,
      507.0,
      508.0,
      509.0,
      510.0,
      511.0,
      512.0,
      513.0,
      514.0,
      515.0,
      516.0,
      517.0,
      518.0,
      519.0,
      520.0,
      521.0,
      522.0,
      523.0,
      524.0,
      525.0,
      526.0,
      527.0,
      528.0,
      529.0,
      530.0,
      531.0,
      532.0,
      533.0,
      534.0,
      535.0,
      536.0,
      537.0,
      538.0,
      539.0,
      540.0,
      541.0,
      542.0,
      543.0,
      544.0,
      545.0,
      546.0,
      547.0,
      548.0,
      549.0,
      550.0,
      551.0,
      552.0,
      553.0,
      554.0,
      555.0,
      556.0,
      557.0,
      558.0,
      559.0,
      560.0,
      561.0,
      562.0,
      563.0,
      564.0,
      565.0,
      566.0,
      567.0,
      568.0,
      569.0,
      570.0,
      571.0,
      572.0,
      573.0,
      574.0,
      575.0,
      576.0,
      577.0,
      578.0,
      579.0,
      580.0,
      581.0,
      582.0,
      583.0,
      584.0,
      585.0,
      586.0,
      587.0,
      588.0,
      589.0
    ],
    "reflectance": [
      0.4658,
      0.46862,
      0.47052,
      0.47239,
      0.47468,
      0.47674,
      0.47861,
      0.48023,
      0.4813,
      0.4832,
      0.48491,
      0.48582,
      0.48677,
      0.48786,
      0.48815,
      0.4889,
      0.48982,
      0.4906,
      0.49162,
      0.49242,
      0.49368,
      0.49467,
      0.4956,
      0.49637,
      0.49742,
      0.4974,
      0.49816,
      0.49931,
      0.50029,
      0.50068,
      0.50183,
      0.50268,
      0.5014,
      0.504,
      0.50503,
      0.50515,
      0.50651,
      0.50666,
      0.5075,
      0.50752,
      0.50887,
      0.50954,
      0.50995,
      0.5108,
      0.51144,
      0.51215,
      0.514,
      0.51507,
      0.51621,
      0.51751,
      0.51889,
      0.51951,
      0.5208,
      0.52209,
      0.52281,
      0.52352,
      0.5245,
      0.52476,
      0.5264,
      0.52729,
      0.52758,
      0.5292,
      0.53091,
      0.53175,
      0.5329,
      0.5334,
      0.53394,
      0.53526,
      0.53573,
      0.53686,
      0.53723,
      0.5381,
      0.53935,
      0.54023,
      0.54129,
      0.54194,
      0.54247,
      0.54348,
      0.54462,
      0.54575,
      0.54682,
      0.54902,
      0.55025,
      0.55135,
      0.55311,
      0.55418,
      0.55527,
      0.55572,
      0.55647,
      0.55682,
      0.55626,
      0.55593,
      0.55494,
      0.55402,
      0.54903,
      0.54191,
      0.53858,
      0.54016,
      0.54347,
      0.54585,
      0.54784,
      0.55097,
      0.55442,
      0.55888,
      0.56241,
      0.56617,
      0.56972,
      0.57215,
      0.57507,
      0.57716,
      0.57884,
      0.58068,
      0.58192,
      0.58289,
      0.58449,
      0.58562,
      0.58658,
      0.58711,
      0.58803,
      0.58873,
      0.58941,
      0.59009,
      0.59001,
      0.59092,
      0.59017,
      0.59173,
      0.5915,
      0.59169,
      0.59143,
      0.59126,
      0.59058,
      0.59044,
      0.59005,
      0.58962,
      0.58834,
      0.58852,
      0.58793,
      0.58684,
      0.58666,
      0.5862,
      0.58634,
      0.58643,
      0.58767,
      0.58886,
      0.58978,
      0.59133,
      0.5928,
      0.59472,
      0.59583,
      0.59691,
      0.59834,
      0.59967,
      0.60062,
      0.6013,
      0.60229,
      0.60282,
      0.60378,
      0.60416,
      0.60501,
      0.60526,
      0.60611,
      0.60617,
      0.60674,
      0.60733,
      0.60719,
      0.60744,
      0.60809,
      0.60855,
      0.60891,
      0.60976,
      0.60956,
      0.60954,
      0.60999,
      0.6101,
      0.61041,
      0.61075,
      0.61065,
      0.61091,
      0.61119,
      0.61122
    ],
    "error": [
      0.00601,
      0.00607,
      0.00606,
      0.0062,
      0.00594,
      0.00626,
      0.00603,
      0.00601,
      0.0061,
      0.00573,
      0.00607,
      0.00605,
      0.00627,
      0.006,
      0.00591,
      0.00565,
      0.00576,
      0.00591,
      0.00587,
      0.0058,
      0.00584,
      0.00589,
      0.0059,
      0.00553,
      0.00555,
      0.00563,
      0.00572,
      0.00579,
      0.00564,
      0.00575,
      0.00591,
      0.00618,
      0.00584,
      0.00591,
      0.00594,
      0.00594,
      0.00573,
      0.00575,
      0.00607,
      0.00625,
      0.00606,
      0.00626,
      0.00618,
      0.00605,
      0.00623,
      0.00624,
      0.00628,
      0.00586,
      0.00649,
      0.00633,
      0.00644,
      0.00653,
      0.00637,
      0.0064,
      0.00649,
      0.00664,
      0.00657,
      0.006,
      0.00595,
      0.00628,
      0.00588,
      0.00607,
      0.00611,
      0.00606,
      0.00633,
      0.00598,
      0.00589,
      0.00624,
      0.00637,
      0.00622,
      0.0062,
      0.00589,
      0.00624,
      0.0063,
      0.00633,
      0.00674,
      0.00637,
      0.00672,
      0.00649,
      0.00643,
      0.00633,
      0.00626,
      0.00653,
      0.00668,
      0.00642,
      0.00673,
      0.00726,
      0.00719,
      0.00663,
      0.00686,
      0.00673,
      0.00698,
      0.00698,
      0.00648,
      0.00656,
      0.00645,
      0.00659,
      0.0067,
      0.00667,
      0.00655,
      0.00665,
      0.00698,
      0.00691,
      0.00715,
      0.00728,
      0.00699,
      0.00713,
      0.00745,
      0.00744,
      0.00774,
      0.0073,
      0.00736,
      0.00726,
      0.00728,
      0.00715,
      0.00743,
      0.00757,
      0.00741,
      0.00787,
      0.00786,
      0.00773,
      0.00778,
      0.00786,
      0.00811,
      0.00796,
      0.00799,
      0.00777,
      0.0076,
      0.00778,
      0.00822,
      0.00799,
      0.00805,
      0.0078,
      0.00794,
      0.00783,
      0.00774,
      0.00803,
      0.00803,
      0.00745,
      0.00783,
      0.00754,
      0.00744,
      0.00764,
      0.00765,
      0.00773,
      0.00762,
      0.00782,
      0.00784,
      0.00801,
      0.00786,
      0.00822,
      0.00777,
      0.00813,
      0.00773,
      0.0077,
      0.0078,
      0.00797,
      0.00798,
      0.00762,
      0.00768,
      0.00814,
      0.00815,
      0.00802,
      0.00812,
      0.00817,
      0.00812,
      0.00847,
      0.00848,
      0.00831,
      0.0086,
      0.00865,
      0.0088,
      0.00837,
      0.00873,
      0.00869,
      0.00867,
      0.00836,
      0.00858,
      0.00864,
      0.00896
    ]
  },
  "grain_size": {
    "min": 0,
    "max": 45,
    "unit": "micrometer"
  },
  "abundances": [],
  "description": "Spectrum downloaded from RELAB Spectral Database",
  "version": "0.0.1"
}