{
  "spectrum": {
    "wavelength": [
      410.0,
      411.0,
      412.0,
      413.0,
      414.0,
      415.0,
      416.0,
      417.0,
      418.0,
      419.0,
      420.0,
      421.0,
      422.0,
      423.0,
      424.0,
      425.0,
      426.0,
      427.0,
      428.0,
      429.0,
      430.0,
      431.0,
      432.0,
      433.0,
      434.0,
      435.0,
      436.0,
      437.0,
      438.0,
      439.0,
      440.0,
      441.0,
      442.0,
      443.0,
      444.0,
      445.0,
      446.0,
      447.0,
      448.0,
      449.0,
      450.0,
      451.0,
      452.0,
      453.0,
      454.0,
      455.0,
      456.0,
      457.0,
      458.0,
      459.0,
      460.0,
      461.0,
      462.0,
      463.0,
      464.0,
      465.0,
      466.0,
      467.0,
      468.0,
      469.0,
      470.0,
      471.0,
      472.0,
      473.0,
      474.0,
      475.0,
      476.0,
      477.0,
      478.0,
      479.0,
      480.0,
      481.0,
      482.0,
      483.0,
      484.0,
      485.0,
      486.0,
      487.0,
      488.0,
      489.0,
      490.0,
      491.0,
      492.0,
      493.0,
      494.0,
      495.0,
      496.0,
      497.0,
      498.0,
      499.0,
      500.0,
      501.0,
      502.0,
      503.0,
      504.0,
      505.0,
      506.0,
      507.0,
      508.0,
      509.0,
      510.0,
      511.0,
      512.0,
      513.0,
      514.0,
      515.0,
      516.0,
      517.0,
      518.0,
      519.0,
      520.0,
      521.0,
      522.0,
      523.0,
      524.0,
      525.0,
      526.0,
      527.0,
      528.0,
      529.0,
      530.0,
      531.0,
      532.0,
      533.0,
      534.0,
      535.0,
      536.0,
      537.0,
      538.0,
      539.0,
      540.0,
      541.0,
      542.0,
      543.0,
      544.0,
      545.0,
      546.0,
      547.0,
      548.0,
      549.0,
      550.0,
      551.0,
      552.0,
      553.0,
      554.0,
      555.0,
      556.0,
      557.0,
      558.0,
      559.0,
      560.0,
      561.0,
      562.0,
      563.0,
      564.0,
      565.0,
      566.0,
      567.0,
      568.0,
      569.0,
      570.0,
      571.0,
      572.0,
      573.0,
      574.0,
      575.0,
      576.0,
      577.0,
      578.0,
      579.0,
      580.0,
      581.0,
      582.0,
      583.0,
      584.0,
      585.0,
      586.0,
      587.0,
      588.0,
      589.0
    ],
    "reflectance": [
      0.41043,
      0.41409,
      0.41656,
      0.41798,
      0.41971,
      0.42113,
      0.42241,
      0.42329,
      0.42454,
      0.42576,
      0.42608,
      0.42607,
      0.42611,
      0.42585,
      0.42512,
      0.42501,
      0.4254,
      0.42632,
      0.42763,
      0.42975,
      0.43133,
      0.43334,
      0.43496,
      0.43631,
      0.43852,
      0.4385,
      0.43976,
      0.44057,
      0.44101,
      0.44095,
      0.44226,
      0.4413,
      0.44201,
      0.44181,
      0.44229,
      0.44185,
      0.44226,
      0.44327,
      0.44355,
      0.44477,
      0.44472,
      0.44567,
      0.44684,
      0.44746,
      0.44855,
      0.44931,
      0.44998,
      0.45168,
      0.4524,
      0.45316,
      0.4545,
      0.45536,
      0.45614,
      0.45634,
      0.4576,
      0.45749,
      0.45799,
      0.45881,
      0.45924,
      0.46021,
      0.46107,
      0.46255,
      0.46336,
      0.46441,
      0.46526,
      0.4656,
      0.46606,
      0.46628,
      0.46695,
      0.46702,
      0.46719,
      0.46798,
      0.46931,
      0.47014,
      0.47143,
      0.47244,
      0.47191,
      0.47282,
      0.47308,
      0.4742,
      0.4754,
      0.4757,
      0.47723,
      0.47838,
      0.47868,
      0.47956,
      0.4796,
      0.48064,
      0.4805,
      0.47946,
      0.47888,
      0.47712,
      0.47608,
      0.47255,
      0.46259,
      0.45355,
      0.45614,
      0.46449,
      0.47004,
      0.47419,
      0.47664,
      0.47839,
      0.4816,
      0.48446,
      0.48619,
      0.48867,
      0.49021,
      0.49083,
      0.49218,
      0.49242,
      0.49387,
      0.49348,
      0.49386,
      0.49451,
      0.49478,
      0.49534,
      0.49558,
      0.49533,
      0.49523,
      0.49547,
      0.49615,
      0.49575,
      0.49581,
      0.49535,
      0.49483,
      0.49485,
      0.49314,
      0.49321,
      0.49314,
      0.49208,
      0.49169,
      0.49068,
      0.49032,
      0.48944,
      0.48888,
      0.48858,
      0.48822,
      0.48771,
      0.48715,
      0.48758,
      0.48782,
      0.48832,
      0.48971,
      0.49041,
      0.49181,
      0.49266,
      0.49378,
      0.49411,
      0.49517,
      0.49595,
      0.49591,
      0.49596,
      0.49629,
      0.49734,
      0.49797,
      0.49826,
      0.49841,
      0.49901,
      0.49904,
      0.49932,
      0.49992,
      0.49977,
      0.49985,
      0.50014,
      0.49995,
      0.50034,
      0.50013,
      0.50051,
      0.50047,
      0.50058,
      0.50051,
      0.501,
      0.501,
      0.50074,
      0.50017,
      0.50134,
      0.50055,
      0.50073,
      0.50105,
      0.50106
    ],
    "error": [
      0.00868,
      0.00831,
      0.00814,
      0.00827,
      0.00794,
      0.00824,
      0.00803,
      0.00815,
      0.00796,
      0.00801,
      0.00805,
      0.00799,
      0.00797,
      0.00809,
      0.0079,
      0.00804,
      0.00782,
      0.00786,
      0.00789,
      0.00766,
      0.00795,
      0.0077,
      0.00796,
      0.00783,
      0.00803,
      0.00826,
      0.00794,
      0.00824,
      0.00821,
      0.00822,
      0.00807,
      0.00835,
      0.00817,
      0.00819,
      0.0082,
      0.00816,
      0.00837,
      0.00814,
      0.00793,
      0.00812,
      0.00811,
      0.00826,
      0.00813,
      0.00823,
      0.00824,
      0.00829,
      0.00825,
      0.00835,
      0.00819,
      0.00821,
      0.00828,
      0.0082,
      0.00812,
      0.00835,
      0.0084,
      0.00832,
      0.0084,
      0.00837,
      0.00841,
      0.00867,
      0.00857,
      0.00849,
      0.00854,
      0.00842,
      0.00842,
      0.00846,
      0.00842,
      0.00879,
      0.00863,
      0.00851,
      0.00849,
      0.00868,
      0.00855,
      0.00858,
      0.0087,
      0.00875,
      0.00854,
      0.00867,
      0.00884,
      0.00849,
      0.00853,
      0.00875,
      0.00856,
      0.00848,
      0.00874,
      0.00878,
      0.00895,
      0.00866,
      0.00854,
      0.00854,
      0.00884,
      0.00895,
      0.00885,
      0.0086,
      0.00848,
      0.00811,
      0.00803,
      0.00848,
      0.00857,
      0.00878,
      0.00881,
      0.00832,
      0.00884,
      0.00908,
      0.00909,
      0.00905,
      0.0093,
      0.00885,
      0.00893,
      0.00905,
      0.00913,
      0.00912,
      0.00862,
      0.00882,
      0.00927,
      0.00906,
      0.00913,
      0.00938,
      0.00912,
      0.00893,
      0.00893,
      0.0091,
      0.0092,
      0.00948,
      0.00912,
      0.009,
      0.00924,
      0.00905,
      0.00886,
      0.00894,
      0.00904,
      0.00902,
      0.00925,
      0.0088,
      0.0092,
      0.00905,
      0.00868,
      0.00906,
      0.00907,
      0.00851,
      0.00914,
      0.00902,
      0.00864,
      0.00922,
      0.00886,
      0.00891,
      0.00888,
      0.00912,
      0.00903,
      0.00918,
      0.00935,
      0.00893,
      0.00928,
      0.0091,
      0.00906,
      0.00923,
      0.009,
      0.009,
      0.00911,
      0.00906,
      0.00903,
      0.00923,
      0.00905,
      0.00919,
      0.00921,
      0.00939,
      0.00922,
      0.0094,
      0.00908,
      0.00922,
      0.00901,
      0.00894,
      0.0089,
      0.00941,
      0.00911,
      0.00928,
      0.00916,
      0.00916,
      0.00937,
      0.00932
    ]
  },
  "grain_size": {
    "min": 0,
    "max": 45,
    "unit": "micrometer"
  },
  "abundances": [],
  "description": "Spectrum downloaded from RELAB Spectral Database",
  "version": "0.0.1"
}