{
  "spectrum": {
    "wavelength": [
      410.0,
      411.0,
      412.0,
      413.0,
      414.0,
      415.0,
      416.0,
      417.0,
      418.0,
      419.0,
      420.0,
      421.0,
      422.0,
      423.0,
      424.0,
      425.0,
      426.0,
      427.0,
      428.0,
      429.0,
      430.0,
      431.0,
      432.0,
      433.0,
      434.0,
      435.0,
      436.0,
      437.0,
      438.0,
      439.0,
      440.0,
      441.0,
      442.0,
      443.0,
      444.0,
      445.0,
      446.0,
      447.0,
      448.0,
      449.0,
      450.0,
      451.0,
      452.0,
      453.0,
      454.0,
      455.0,
      456.0,
      457.0,
      458.0,
      459.0,
      460.0,
      461.0,
      462.0,
      463.0,
      464.0,
      465.0,
      466.0,
      467.0,
      468.0,
      469.0,
      470.0,
      471.0,
      472.0,
      473.0,
      474.0,
      475.0,
      476.0,
      477.0,
      478.0,
      479.0,
      480.0,
      481.0,
      482.0,
      483.0,
      484.0,
      485.0,
      486.0,
      487.0,
      488.0,
      489.0,
      490.0,
      491.0,
      492.0,
      493.0,
      494.0,
      495.0,
      496.0,
      497.0,
      498.0,
      499.0,
      500.0,
      501.0,
      502.0,
      503.0,
      504.0,
      505.0,
      506.0,
      507.0,
      508.0,
      509.0,
      510.0,
      511.0,
      512.0,
      513.0,
      514.0,
      515.0,
      516.0,
      517.0,
      518.0,
      519.0,
      520.0,
      521.0,
      522.0,
      523.0,
      524.0,
      525.0,
      526.0,
      527.0,
      528.0,
      529.0,
      530.0,
      531.0,
      532.0,
      533.0,
      534.0,
      535.0,
      536.0,
      537.0,
      538.0,
      539.0,
      540.0,
      541.0,
      542.0,
      543.0,
      544.0,
      545.0,
      546.0,
      547.0,
      548.0,
      549.0,
      550.0,
      551.0,
      552.0,
      553.0,
      554.0,
      555.0,
      556.0,
      557.0,
      558.0,
      559.0,
      560.0,
      561.0,
      562.0,
      563.0,
      564.0,
      565.0,
      566.0,
      567.0,
      568.0,
      569.0,
      570.0,
      571.0,
      572.0,
      573.0,
      574.0,
      575.0,
      576.0,
      577.0,
      578.0,
      579.0,
      580.0,
      581.0,
      582.0,
      583.0,
      584.0,
      585.0,
      586.0,
      587.0,
      588.0,
      589.0
    ],
    "reflectance": [
      0.47147,
      0.47438,
      0.47564,
      0.47753,
      0.47861,
      0.47999,
      0.4818,
      0.48284,
      0.48353,
      0.48504,
      0.48578,
      0.48745,
      0.48811,
      0.4893,
      0.48934,
      0.48968,
      0.49038,
      0.49103,
      0.49096,
      0.49155,
      0.49175,
      0.49222,
      0.49268,
      0.49345,
      0.49357,
      0.49372,
      0.49484,
      0.49593,
      0.49662,
      0.49738,
      0.49864,
      0.49977,
      0.4984,
      0.50093,
      0.50219,
      0.5025,
      0.50346,
      0.50363,
      0.50459,
      0.50467,
      0.50576,
      0.50616,
      0.5066,
      0.50745,
      0.50786,
      0.50859,
      0.50935,
      0.51007,
      0.51137,
      0.51245,
      0.51293,
      0.51437,
      0.5149,
      0.51615,
      0.51672,
      0.51657,
      0.51751,
      0.51803,
      0.51818,
      0.5193,
      0.51946,
      0.52047,
      0.52186,
      0.52274,
      0.5231,
      0.52392,
      0.52427,
      0.52518,
      0.52536,
      0.52697,
      0.52753,
      0.52788,
      0.52922,
      0.53007,
      0.53026,
      0.53082,
      0.53158,
      0.53278,
      0.53367,
      0.53474,
      0.53533,
      0.53695,
      0.53765,
      0.5384,
      0.53971,
      0.5397,
      0.54007,
      0.54116,
      0.5412,
      0.54127,
      0.54069,
      0.54025,
      0.53857,
      0.53759,
      0.53421,
      0.53221,
      0.53212,
      0.53187,
      0.5322,
      0.53235,
      0.5337,
      0.53628,
      0.53924,
      0.54284,
      0.54559,
      0.54845,
      0.55096,
      0.55375,
      0.55482,
      0.55663,
      0.55745,
      0.55889,
      0.5609,
      0.56102,
      0.56184,
      0.56264,
      0.56335,
      0.56375,
      0.56457,
      0.56473,
      0.56464,
      0.56487,
      0.56523,
      0.56557,
      0.56584,
      0.56678,
      0.5666,
      0.56636,
      0.56591,
      0.56502,
      0.56367,
      0.56392,
      0.56352,
      0.56374,
      0.563,
      0.5627,
      0.56278,
      0.56253,
      0.56256,
      0.56262,
      0.56286,
      0.56299,
      0.56467,
      0.5655,
      0.56649,
      0.56843,
      0.56958,
      0.57113,
      0.57221,
      0.57291,
      0.5744,
      0.57536,
      0.57637,
      0.57701,
      0.57792,
      0.57881,
      0.57924,
      0.57956,
      0.58064,
      0.5813,
      0.58128,
      0.58194,
      0.58265,
      0.58321,
      0.58322,
      0.58385,
      0.58469,
      0.58471,
      0.58482,
      0.58509,
      0.58509,
      0.58503,
      0.58522,
      0.58541,
      0.58581,
      0.58605,
      0.58681,
      0.58681,
      0.58726,
      0.58688
    ],
    "error": [
      0.0049,
      0.00503,
      0.00488,
      0.00475,
      0.00465,
      0.00494,
      0.00455,
      0.00458,
      0.00453,
      0.00442,
      0.00453,
      0.00486,
      0.00499,
      0.00446,
      0.00455,
      0.00448,
      0.00469,
      0.00467,
      0.00459,
      0.00433,
      0.0044,
      0.00442,
      0.0046,
      0.00401,
      0.0044,
      0.00449,
      0.0045,
      0.00458,
      0.00435,
      0.00446,
      0.00453,
      0.00466,
      0.00424,
      0.0045,
      0.00424,
      0.00422,
      0.00416,
      0.00411,
      0.00454,
      0.00449,
      0.00476,
      0.00455,
      0.00456,
      0.00441,
      0.00452,
      0.00444,
      0.00441,
      0.00438,
      0.00464,
      0.00467,
      0.00478,
      0.00475,
      0.0044,
      0.00464,
      0.00454,
      0.00471,
      0.00522,
      0.00467,
      0.00456,
      0.00489,
      0.00471,
      0.00484,
      0.00475,
      0.00459,
      0.00498,
      0.00488,
      0.00452,
      0.00497,
      0.00508,
      0.00481,
      0.00495,
      0.00444,
      0.00499,
      0.00455,
      0.00456,
      0.00537,
      0.0055,
      0.00573,
      0.0057,
      0.00545,
      0.00523,
      0.00497,
      0.00518,
      0.00522,
      0.00514,
      0.00551,
      0.00594,
      0.00606,
      0.00636,
      0.00621,
      0.00672,
      0.00648,
      0.00684,
      0.00594,
      0.00592,
      0.00562,
      0.0053,
      0.00551,
      0.0054,
      0.00578,
      0.00588,
      0.00566,
      0.00539,
      0.00532,
      0.00546,
      0.00535,
      0.00562,
      0.00631,
      0.0066,
      0.00693,
      0.00709,
      0.00694,
      0.00675,
      0.0066,
      0.00592,
      0.00637,
      0.00578,
      0.00564,
      0.0053,
      0.00553,
      0.00508,
      0.00514,
      0.00509,
      0.00491,
      0.00493,
      0.00509,
      0.00488,
      0.0047,
      0.0048,
      0.0051,
      0.00486,
      0.00478,
      0.00488,
      0.00472,
      0.00485,
      0.00464,
      0.00506,
      0.00495,
      0.00489,
      0.00549,
      0.0056,
      0.00577,
      0.00613,
      0.00634,
      0.00613,
      0.0063,
      0.0064,
      0.00628,
      0.0063,
      0.00638,
      0.00682,
      0.00662,
      0.00716,
      0.00735,
      0.00713,
      0.00782,
      0.00837,
      0.00857,
      0.00861,
      0.0087,
      0.00924,
      0.00944,
      0.00951,
      0.00981,
      0.00981,
      0.0104,
      0.01006,
      0.01034,
      0.01053,
      0.01075,
      0.01088,
      0.01113,
      0.01087,
      0.01056,
      0.01069,
      0.01044,
      0.00996,
      0.00996,
      0.01021,
      0.0103
    ]
  },
  "grain_size": {
    "min": 0,
    "max": 45,
    "unit": "micrometer"
  },
  "abundances": [],
  "description": "Spectrum downloaded from RELAB Spectral Database",
  "version": "0.0.1"
}