{
  "spectrum": {
    "wavelength": [
      410.0,
      411.0,
      412.0,
      413.0,
      414.0,
      415.0,
      416.0,
      417.0,
      418.0,
      419.0,
      420.0,
      421.0,
      422.0,
      423.0,
      424.0,
      425.0,
      426.0,
      427.0,
      428.0,
      429.0,
      430.0,
      431.0,
      432.0,
      433.0,
      434.0,
      435.0,
      436.0,
      437.0,
      438.0,
      439.0,
      440.0,
      441.0,
      442.0,
      443.0,
      444.0,
      445.0,
      446.0,
      447.0,
      448.0,
      449.0,
      450.0,
      451.0,
      452.0,
      453.0,
      454.0,
      455.0,
      456.0,
      457.0,
      458.0,
      459.0,
      460.0,
      461.0,
      462.0,
      463.0,
      464.0,
      465.0,
      466.0,
      467.0,
      468.0,
      469.0,
      470.0,
      471.0,
      472.0,
      473.0,
      474.0,
      475.0,
      476.0,
      477.0,
      478.0,
      479.0,
      480.0,
      481.0,
      482.0,
      483.0,
      484.0,
      485.0,
      486.0,
      487.0,
      488.0,
      489.0,
      490.0,
      491.0,
      492.0,
      493.0,
      494.0,
      495.0,
      496.0,
      497.0,
      498.0,
      499.0,
      500.0,
      501.0,
      502.0,
      503.0,
      504.0,
      505.0,
      506.0,
      507.0,
      508.0,
      509.0,
      510.0,
      511.0,
      512.0,
      513.0,
      514.0,
      515.0,
      516.0,
      517.0,
      518.0,
      519.0,
      520.0,
      521.0,
      522.0,
      523.0,
      524.0,
      525.0,
      526.0,
      527.0,
      528.0,
      529.0,
      530.0,
      531.0,
      532.0,
      533.0,
      534.0,
      535.0,
      536.0,
      537.0,
      538.0,
      539.0,
      540.0,
      541.0,
      542.0,
      543.0,
      544.0,
      545.0,
      546.0,
      547.0,
      548.0,
      549.0,
      550.0,
      551.0,
      552.0,
      553.0,
      554.0,
      555.0,
      556.0,
      557.0,
      558.0,
      559.0,
      560.0,
      561.0,
      562.0,
      563.0,
      564.0,
      565.0,
      566.0,
      567.0,
      568.0,
      569.0,
      570.0,
      571.0,
      572.0,
      573.0,
      574.0,
      575.0,
      576.0,
      577.0,
      578.0,
      579.0,
      580.0,
      581.0,
      582.0,
      583.0,
      584.0,
      585.0,
      586.0,
      587.0,
      588.0,
      589.0
    ],
    "reflectance": [
      0.62601,
      0.62928,
      0.63128,
      0.63269,
      0.63431,
      0.63615,
      0.63661,
      0.63832,
      0.63847,
      0.63936,
      0.63958,
      0.64004,
      0.63855,
      0.63667,
      0.63501,
      0.63351,
      0.6333,
      0.63324,
      0.63526,
      0.63746,
      0.64073,
      0.64234,
      0.64423,
      0.6469,
      0.64762,
      0.64874,
      0.65011,
      0.65109,
      0.65185,
      0.65165,
      0.65171,
      0.65179,
      0.65183,
      0.65284,
      0.65276,
      0.65334,
      0.65355,
      0.65426,
      0.65517,
      0.65538,
      0.65567,
      0.65564,
      0.6563,
      0.65723,
      0.65803,
      0.65836,
      0.6595,
      0.6602,
      0.66177,
      0.66232,
      0.66371,
      0.6646,
      0.66517,
      0.66546,
      0.66562,
      0.66485,
      0.66559,
      0.66504,
      0.66574,
      0.66735,
      0.66829,
      0.66938,
      0.67067,
      0.67173,
      0.67265,
      0.67405,
      0.67311,
      0.67327,
      0.67265,
      0.67295,
      0.67343,
      0.67459,
      0.67537,
      0.67673,
      0.67754,
      0.67843,
      0.67876,
      0.67946,
      0.67991,
      0.68106,
      0.68267,
      0.68496,
      0.68666,
      0.68905,
      0.69,
      0.69189,
      0.69207,
      0.69258,
      0.69219,
      0.69165,
      0.68953,
      0.68696,
      0.68474,
      0.68065,
      0.66622,
      0.65007,
      0.64834,
      0.65978,
      0.67364,
      0.68374,
      0.6885,
      0.69299,
      0.69743,
      0.70103,
      0.70498,
      0.70839,
      0.71132,
      0.71329,
      0.71574,
      0.71674,
      0.71763,
      0.71791,
      0.71817,
      0.71879,
      0.71805,
      0.71812,
      0.71837,
      0.71837,
      0.71937,
      0.71928,
      0.72014,
      0.72018,
      0.72032,
      0.72044,
      0.72013,
      0.71973,
      0.71919,
      0.71758,
      0.71743,
      0.71659,
      0.7156,
      0.71479,
      0.71436,
      0.71357,
      0.7129,
      0.71199,
      0.71198,
      0.71149,
      0.71139,
      0.7112,
      0.71177,
      0.71314,
      0.71453,
      0.71557,
      0.71651,
      0.71735,
      0.71903,
      0.71979,
      0.72149,
      0.72349,
      0.7249,
      0.7269,
      0.72924,
      0.73041,
      0.7311,
      0.73138,
      0.73197,
      0.73223,
      0.73236,
      0.73245,
      0.73262,
      0.733,
      0.7326,
      0.73363,
      0.73442,
      0.736,
      0.73753,
      0.73903,
      0.74048,
      0.74132,
      0.74199,
      0.74362,
      0.74398,
      0.74501,
      0.74542,
      0.74559,
      0.74561,
      0.74698,
      0.74722,
      0.74697
    ],
    "error": [
      0.0063,
      0.00681,
      0.00651,
      0.00684,
      0.00676,
      0.00658,
      0.00655,
      0.00666,
      0.00655,
      0.00637,
      0.00674,
      0.00667,
      0.00656,
      0.0064,
      0.00644,
      0.00654,
      0.00656,
      0.00681,
      0.00673,
      0.00688,
      0.00651,
      0.00668,
      0.00704,
      0.00677,
      0.00732,
      0.00782,
      0.0069,
      0.00688,
      0.00715,
      0.00761,
      0.00794,
      0.00795,
      0.00848,
      0.00836,
      0.00856,
      0.00852,
      0.0082,
      0.00806,
      0.00815,
      0.00881,
      0.00876,
      0.00817,
      0.00867,
      0.00814,
      0.00814,
      0.00858,
      0.00857,
      0.00848,
      0.00857,
      0.00809,
      0.00918,
      0.0087,
      0.00904,
      0.00805,
      0.00833,
      0.00829,
      0.00869,
      0.00894,
      0.009,
      0.00895,
      0.00808,
      0.00879,
      0.00883,
      0.00861,
      0.00903,
      0.00884,
      0.00883,
      0.00909,
      0.00914,
      0.00845,
      0.00928,
      0.00966,
      0.00977,
      0.00954,
      0.00917,
      0.00977,
      0.00929,
      0.01019,
      0.00918,
      0.00897,
      0.00928,
      0.00939,
      0.00943,
      0.00939,
      0.00955,
      0.00957,
      0.01005,
      0.0103,
      0.01021,
      0.01031,
      0.01041,
      0.00993,
      0.01056,
      0.01018,
      0.00977,
      0.01003,
      0.00989,
      0.00956,
      0.01073,
      0.01108,
      0.01058,
      0.01017,
      0.00993,
      0.00998,
      0.01083,
      0.01133,
      0.01215,
      0.01202,
      0.01198,
      0.01181,
      0.01149,
      0.01116,
      0.01067,
      0.01066,
      0.0104,
      0.01033,
      0.01046,
      0.00998,
      0.01068,
      0.01132,
      0.01179,
      0.01252,
      0.01326,
      0.0138,
      0.01386,
      0.01421,
      0.01334,
      0.0126,
      0.0121,
      0.01201,
      0.0115,
      0.01156,
      0.01106,
      0.01169,
      0.01192,
      0.01215,
      0.01239,
      0.01309,
      0.01375,
      0.01448,
      0.01388,
      0.01362,
      0.01379,
      0.01345,
      0.01238,
      0.01239,
      0.01174,
      0.01204,
      0.01152,
      0.01108,
      0.0111,
      0.01166,
      0.01291,
      0.01381,
      0.01445,
      0.01452,
      0.0146,
      0.01414,
      0.01382,
      0.01331,
      0.01302,
      0.01271,
      0.01262,
      0.01244,
      0.0119,
      0.01172,
      0.01156,
      0.01199,
      0.01278,
      0.01292,
      0.01391,
      0.0142,
      0.01425,
      0.01517,
      0.01516,
      0.01531,
      0.01433,
      0.01415,
      0.01411,
      0.01402
    ]
  },
  "grain_size": {
    "min": 0,
    "max": 45,
    "unit": "micrometer"
  },
  "abundances": [],
  "description": "Spectrum downloaded from RELAB Spectral Database",
  "version": "0.0.1"
}