{
  "spectrum": {
    "wavelength": [
      410.0,
      411.0,
      412.0,
      413.0,
      414.0,
      415.0,
      416.0,
      417.0,
      418.0,
      419.0,
      420.0,
      421.0,
      422.0,
      423.0,
      424.0,
      425.0,
      426.0,
      427.0,
      428.0,
      429.0,
      430.0,
      431.0,
      432.0,
      433.0,
      434.0,
      435.0,
      436.0,
      437.0,
      438.0,
      439.0,
      440.0,
      441.0,
      442.0,
      443.0,
      444.0,
      445.0,
      446.0,
      447.0,
      448.0,
      449.0,
      450.0,
      451.0,
      452.0,
      453.0,
      454.0,
      455.0,
      456.0,
      457.0,
      458.0,
      459.0,
      460.0,
      461.0,
      462.0,
      463.0,
      464.0,
      465.0,
      466.0,
      467.0,
      468.0,
      469.0,
      470.0,
      471.0,
      472.0,
      473.0,
      474.0,
      475.0,
      476.0,
      477.0,
      478.0,
      479.0,
      480.0,
      481.0,
      482.0,
      483.0,
      484.0,
      485.0,
      486.0,
      487.0,
      488.0,
      489.0,
      490.0,
      491.0,
      492.0,
      493.0,
      494.0,
      495.0,
      496.0,
      497.0,
      498.0,
      499.0,
      500.0,
      501.0,
      502.0,
      503.0,
      504.0,
      505.0,
      506.0,
      507.0,
      508.0,
      509.0,
      510.0,
      511.0,
      512.0,
      513.0,
      514.0,
      515.0,
      516.0,
      517.0,
      518.0,
      519.0,
      520.0,
      521.0,
      522.0,
      523.0,
      524.0,
      525.0,
      526.0,
      527.0,
      528.0,
      529.0,
      530.0,
      531.0,
      532.0,
      533.0,
      534.0,
      535.0,
      536.0,
      537.0,
      538.0,
      539.0,
      540.0,
      541.0,
      542.0,
      543.0,
      544.0,
      545.0,
      546.0,
      547.0,
      548.0,
      549.0,
      550.0,
      551.0,
      552.0,
      553.0,
      554.0,
      555.0,
      556.0,
      557.0,
      558.0,
      559.0,
      560.0,
      561.0,
      562.0,
      563.0,
      564.0,
      565.0,
      566.0,
      567.0,
      568.0,
      569.0,
      570.0,
      571.0,
      572.0,
      573.0,
      574.0,
      575.0,
      576.0,
      577.0,
      578.0,
      579.0,
      580.0,
      581.0,
      582.0,
      583.0,
      584.0,
      585.0,
      586.0,
      587.0,
      588.0,
      589.0
    ],
    "reflectance": [
      0.50745,
      0.50989,
      0.51215,
      0.51344,
      0.51465,
      0.51637,
      0.51845,
      0.5197,
      0.52115,
      0.52231,
      0.52333,
      0.52497,
      0.52614,
      0.52726,
      0.52821,
      0.52944,
      0.52981,
      0.53022,
      0.53088,
      0.53133,
      0.53175,
      0.53229,
      0.53208,
      0.53201,
      0.53246,
      0.53293,
      0.53422,
      0.53344,
      0.53394,
      0.53443,
      0.53496,
      0.53513,
      0.53563,
      0.53545,
      0.53568,
      0.53631,
      0.53652,
      0.53721,
      0.53694,
      0.537,
      0.53725,
      0.53793,
      0.53818,
      0.53904,
      0.5399,
      0.53986,
      0.54076,
      0.54211,
      0.54252,
      0.5438,
      0.54476,
      0.54545,
      0.54674,
      0.54749,
      0.54859,
      0.54991,
      0.55103,
      0.55209,
      0.55376,
      0.55545,
      0.55649,
      0.55811,
      0.55907,
      0.56037,
      0.56127,
      0.56234,
      0.56299,
      0.56414,
      0.56557,
      0.56555,
      0.56669,
      0.56755,
      0.56826,
      0.56933,
      0.56948,
      0.571,
      0.57098,
      0.57138,
      0.57252,
      0.57367,
      0.57491,
      0.57695,
      0.57741,
      0.57931,
      0.581,
      0.58205,
      0.58265,
      0.58453,
      0.58541,
      0.5863,
      0.58654,
      0.58707,
      0.58805,
      0.5885,
      0.58798,
      0.58817,
      0.58793,
      0.58676,
      0.5862,
      0.58903,
      0.59098,
      0.59222,
      0.59455,
      0.59648,
      0.59876,
      0.60035,
      0.60206,
      0.60355,
      0.60499,
      0.60672,
      0.60753,
      0.60793,
      0.60921,
      0.61064,
      0.61165,
      0.61255,
      0.61336,
      0.61486,
      0.61644,
      0.61671,
      0.61789,
      0.6186,
      0.61976,
      0.62077,
      0.62157,
      0.62161,
      0.62189,
      0.62319,
      0.62421,
      0.62445,
      0.6255,
      0.62578,
      0.62575,
      0.62696,
      0.62645,
      0.62751,
      0.62749,
      0.62799,
      0.6285,
      0.62881,
      0.62964,
      0.62972,
      0.63007,
      0.63177,
      0.63214,
      0.63262,
      0.63369,
      0.63445,
      0.63498,
      0.63573,
      0.63611,
      0.63642,
      0.63781,
      0.63816,
      0.63904,
      0.63972,
      0.63999,
      0.64054,
      0.64083,
      0.64103,
      0.64129,
      0.64213,
      0.64275,
      0.64215,
      0.64284,
      0.64307,
      0.64294,
      0.64352,
      0.64373,
      0.64437,
      0.64415,
      0.64383,
      0.64507,
      0.64468,
      0.64493,
      0.64478,
      0.64466,
      0.64513,
      0.64609,
      0.64644
    ],
    "error": [
      0.00664,
      0.00665,
      0.0064,
      0.00649,
      0.00642,
      0.00661,
      0.00646,
      0.00649,
      0.00646,
      0.00634,
      0.00649,
      0.00645,
      0.00632,
      0.00655,
      0.00635,
      0.00653,
      0.00648,
      0.00628,
      0.0065,
      0.00667,
      0.00659,
      0.00626,
      0.00638,
      0.00645,
      0.00665,
      0.00628,
      0.0065,
      0.00676,
      0.0065,
      0.00602,
      0.00631,
      0.00645,
      0.00655,
      0.00662,
      0.00666,
      0.00663,
      0.00668,
      0.0067,
      0.00671,
      0.00656,
      0.00656,
      0.00663,
      0.00666,
      0.00648,
      0.00638,
      0.00641,
      0.00626,
      0.00672,
      0.00671,
      0.00675,
      0.00664,
      0.00656,
      0.00674,
      0.00654,
      0.00649,
      0.00655,
      0.00636,
      0.00679,
      0.00653,
      0.00608,
      0.00649,
      0.00647,
      0.00675,
      0.00697,
      0.00686,
      0.00648,
      0.00671,
      0.00686,
      0.00665,
      0.00667,
      0.00706,
      0.00674,
      0.00643,
      0.00682,
      0.00696,
      0.00686,
      0.0068,
      0.00708,
      0.00667,
      0.00679,
      0.00676,
      0.00687,
      0.00726,
      0.00713,
      0.00709,
      0.00667,
      0.00667,
      0.00697,
      0.00699,
      0.00739,
      0.00704,
      0.00689,
      0.00699,
      0.00696,
      0.00691,
      0.00727,
      0.00682,
      0.00722,
      0.00696,
      0.0071,
      0.00727,
      0.00694,
      0.00715,
      0.00734,
      0.00739,
      0.00738,
      0.00713,
      0.00741,
      0.00734,
      0.00728,
      0.00724,
      0.00716,
      0.00724,
      0.00761,
      0.00737,
      0.00739,
      0.0075,
      0.00758,
      0.00774,
      0.00735,
      0.00761,
      0.0076,
      0.00741,
      0.00757,
      0.00758,
      0.00775,
      0.00751,
      0.00774,
      0.00764,
      0.00753,
      0.00718,
      0.00784,
      0.00781,
      0.00767,
      0.00758,
      0.00792,
      0.00744,
      0.00743,
      0.00771,
      0.00752,
      0.00755,
      0.0076,
      0.00744,
      0.00747,
      0.00746,
      0.00764,
      0.0077,
      0.0075,
      0.00809,
      0.00761,
      0.0077,
      0.00766,
      0.00798,
      0.00784,
      0.00792,
      0.00784,
      0.00766,
      0.00793,
      0.008,
      0.0076,
      0.00742,
      0.00808,
      0.00806,
      0.00779,
      0.00782,
      0.00771,
      0.00799,
      0.00798,
      0.00785,
      0.0076,
      0.00767,
      0.00764,
      0.00809,
      0.0082,
      0.00789,
      0.00769,
      0.00809,
      0.00825,
      0.00773,
      0.00777
    ]
  },
  "grain_size": {
    "min": 0,
    "max": 45,
    "unit": "micrometer"
  },
  "abundances": [],
  "description": "Spectrum downloaded from RELAB Spectral Database",
  "version": "0.0.1"
}