{
  "spectrum": {
    "wavelength": [
      410.0,
      411.0,
      412.0,
      413.0,
      414.0,
      415.0,
      416.0,
      417.0,
      418.0,
      419.0,
      420.0,
      421.0,
      422.0,
      423.0,
      424.0,
      425.0,
      426.0,
      427.0,
      428.0,
      429.0,
      430.0,
      431.0,
      432.0,
      433.0,
      434.0,
      435.0,
      436.0,
      437.0,
      438.0,
      439.0,
      440.0,
      441.0,
      442.0,
      443.0,
      444.0,
      445.0,
      446.0,
      447.0,
      448.0,
      449.0,
      450.0,
      451.0,
      452.0,
      453.0,
      454.0,
      455.0,
      456.0,
      457.0,
      458.0,
      459.0,
      460.0,
      461.0,
      462.0,
      463.0,
      464.0,
      465.0,
      466.0,
      467.0,
      468.0,
      469.0,
      470.0,
      471.0,
      472.0,
      473.0,
      474.0,
      475.0,
      476.0,
      477.0,
      478.0,
      479.0,
      480.0,
      481.0,
      482.0,
      483.0,
      484.0,
      485.0,
      486.0,
      487.0,
      488.0,
      489.0,
      490.0,
      491.0,
      492.0,
      493.0,
      494.0,
      495.0,
      496.0,
      497.0,
      498.0,
      499.0,
      500.0,
      501.0,
      502.0,
      503.0,
      504.0,
      505.0,
      506.0,
      507.0,
      508.0,
      509.0,
      510.0,
      511.0,
      512.0,
      513.0,
      514.0,
      515.0,
      516.0,
      517.0,
      518.0,
      519.0,
      520.0,
      521.0,
      522.0,
      523.0,
      524.0,
      525.0,
      526.0,
      527.0,
      528.0,
      529.0,
      530.0,
      531.0,
      532.0,
      533.0,
      534.0,
      535.0,
      536.0,
      537.0,
      538.0,
      539.0,
      540.0,
      541.0,
      542.0,
      543.0,
      544.0,
      545.0,
      546.0,
      547.0,
      548.0,
      549.0,
      550.0,
      551.0,
      552.0,
      553.0,
      554.0,
      555.0,
      556.0,
      557.0,
      558.0,
      559.0,
      560.0,
      561.0,
      562.0,
      563.0,
      564.0,
      565.0,
      566.0,
      567.0,
      568.0,
      569.0,
      570.0,
      571.0,
      572.0,
      573.0,
      574.0,
      575.0,
      576.0,
      577.0,
      578.0,
      579.0,
      580.0,
      581.0,
      582.0,
      583.0,
      584.0,
      585.0,
      586.0,
      587.0,
      588.0,
      589.0
    ],
    "reflectance": [
      0.45204,
      0.45634,
      0.45916,
      0.46092,
      0.46271,
      0.46569,
      0.46482,
      0.46821,
      0.46882,
      0.46937,
      0.4714,
      0.46939,
      0.47008,
      0.46825,
      0.46566,
      0.46486,
      0.4623,
      0.46068,
      0.46276,
      0.46545,
      0.46698,
      0.46692,
      0.4684,
      0.46933,
      0.46925,
      0.46968,
      0.47268,
      0.46857,
      0.46589,
      0.4639,
      0.46254,
      0.46241,
      0.46287,
      0.46296,
      0.462,
      0.46206,
      0.46077,
      0.46142,
      0.46338,
      0.46474,
      0.46478,
      0.46422,
      0.46511,
      0.46629,
      0.46866,
      0.46895,
      0.46946,
      0.47055,
      0.47278,
      0.47365,
      0.47523,
      0.47492,
      0.47504,
      0.47742,
      0.47516,
      0.47555,
      0.47556,
      0.47536,
      0.476,
      0.47544,
      0.47763,
      0.4785,
      0.48002,
      0.4816,
      0.48221,
      0.48305,
      0.48294,
      0.48281,
      0.48254,
      0.48272,
      0.48206,
      0.48273,
      0.48475,
      0.48393,
      0.48584,
      0.48733,
      0.48793,
      0.48734,
      0.48717,
      0.48986,
      0.49387,
      0.49619,
      0.49834,
      0.50408,
      0.50577,
      0.50776,
      0.50964,
      0.51071,
      0.51169,
      0.51053,
      0.50783,
      0.50517,
      0.501,
      0.49594,
      0.48455,
      0.46456,
      0.45448,
      0.46181,
      0.47795,
      0.49234,
      0.50303,
      0.51004,
      0.51834,
      0.52618,
      0.53241,
      0.53768,
      0.54039,
      0.54357,
      0.54555,
      0.54874,
      0.55142,
      0.55518,
      0.55859,
      0.56015,
      0.56168,
      0.56128,
      0.56236,
      0.56305,
      0.56383,
      0.56424,
      0.5648,
      0.56316,
      0.56309,
      0.56423,
      0.56375,
      0.56268,
      0.55748,
      0.54828,
      0.54393,
      0.54536,
      0.54687,
      0.54558,
      0.54425,
      0.54193,
      0.54068,
      0.53845,
      0.53834,
      0.53835,
      0.53853,
      0.53629,
      0.53765,
      0.53938,
      0.54261,
      0.54496,
      0.54715,
      0.55008,
      0.55167,
      0.5541,
      0.55601,
      0.55946,
      0.56067,
      0.56315,
      0.56546,
      0.5702,
      0.57267,
      0.57492,
      0.57638,
      0.57721,
      0.57772,
      0.57831,
      0.57813,
      0.57771,
      0.57768,
      0.57822,
      0.57654,
      0.57737,
      0.58162,
      0.58593,
      0.58867,
      0.59098,
      0.59211,
      0.59449,
      0.59516,
      0.59613,
      0.59565,
      0.59389,
      0.59235,
      0.59389,
      0.59739,
      0.60087
    ],
    "error": [
      0.00621,
      0.00663,
      0.00568,
      0.00717,
      0.0069,
      0.00711,
      0.00609,
      0.00764,
      0.00629,
      0.00681,
      0.00713,
      0.00593,
      0.00772,
      0.00635,
      0.00642,
      0.00786,
      0.00596,
      0.00733,
      0.00842,
      0.00777,
      0.00662,
      0.00631,
      0.00598,
      0.00617,
      0.00706,
      0.00856,
      0.00834,
      0.00748,
      0.00743,
      0.00689,
      0.00738,
      0.007,
      0.00683,
      0.0068,
      0.00652,
      0.00618,
      0.00635,
      0.00654,
      0.00619,
      0.00592,
      0.00576,
      0.00531,
      0.00523,
      0.00508,
      0.0054,
      0.00497,
      0.0054,
      0.00532,
      0.00541,
      0.00509,
      0.00569,
      0.00504,
      0.00555,
      0.00504,
      0.00524,
      0.00548,
      0.00495,
      0.00554,
      0.0052,
      0.00567,
      0.00535,
      0.00532,
      0.00508,
      0.00502,
      0.00541,
      0.00532,
      0.00484,
      0.00512,
      0.00515,
      0.00455,
      0.00489,
      0.005,
      0.00505,
      0.00479,
      0.00482,
      0.00493,
      0.00507,
      0.00531,
      0.00456,
      0.00491,
      0.00502,
      0.00491,
      0.00484,
      0.00517,
      0.00505,
      0.005,
      0.0051,
      0.00517,
      0.00553,
      0.00541,
      0.00512,
      0.00523,
      0.00517,
      0.00503,
      0.00551,
      0.00527,
      0.00485,
      0.00485,
      0.00542,
      0.0055,
      0.00565,
      0.00588,
      0.00556,
      0.00599,
      0.00687,
      0.00688,
      0.00669,
      0.0063,
      0.00627,
      0.0062,
      0.00613,
      0.00604,
      0.00565,
      0.00581,
      0.0056,
      0.00558,
      0.00617,
      0.00654,
      0.00814,
      0.00887,
      0.00976,
      0.01093,
      0.01153,
      0.01217,
      0.01272,
      0.01312,
      0.0111,
      0.01031,
      0.01012,
      0.00909,
      0.00712,
      0.00662,
      0.00679,
      0.00678,
      0.00708,
      0.00758,
      0.00734,
      0.00774,
      0.00909,
      0.01107,
      0.01113,
      0.01037,
      0.00925,
      0.00906,
      0.00847,
      0.00809,
      0.00774,
      0.00773,
      0.00766,
      0.00751,
      0.00693,
      0.0063,
      0.00624,
      0.00563,
      0.00571,
      0.00641,
      0.00771,
      0.0087,
      0.00958,
      0.00992,
      0.01075,
      0.01092,
      0.01066,
      0.01028,
      0.00962,
      0.00813,
      0.00676,
      0.0066,
      0.00674,
      0.0072,
      0.00692,
      0.00758,
      0.0091,
      0.01023,
      0.01038,
      0.00962,
      0.00881,
      0.0086,
      0.00837,
      0.00912
    ]
  },
  "grain_size": {
    "min": 0,
    "max": 250,
    "unit": "micrometer"
  },
  "abundances": [],
  "description": "Spectrum downloaded from RELAB Spectral Database",
  "version": "0.0.1"
}