{
  "spectrum": {
    "wavelength": [
      410.0,
      411.0,
      412.0,
      413.0,
      414.0,
      415.0,
      416.0,
      417.0,
      418.0,
      419.0,
      420.0,
      421.0,
      422.0,
      423.0,
      424.0,
      425.0,
      426.0,
      427.0,
      428.0,
      429.0,
      430.0,
      431.0,
      432.0,
      433.0,
      434.0,
      435.0,
      436.0,
      437.0,
      438.0,
      439.0,
      440.0,
      441.0,
      442.0,
      443.0,
      444.0,
      445.0,
      446.0,
      447.0,
      448.0,
      449.0,
      450.0,
      451.0,
      452.0,
      453.0,
      454.0,
      455.0,
      456.0,
      457.0,
      458.0,
      459.0,
      460.0,
      461.0,
      462.0,
      463.0,
      464.0,
      465.0,
      466.0,
      467.0,
      468.0,
      469.0,
      470.0,
      471.0,
      472.0,
      473.0,
      474.0,
      475.0,
      476.0,
      477.0,
      478.0,
      479.0,
      480.0,
      481.0,
      482.0,
      483.0,
      484.0,
      485.0,
      486.0,
      487.0,
      488.0,
      489.0,
      490.0,
      491.0,
      492.0,
      493.0,
      494.0,
      495.0,
      496.0,
      497.0,
      498.0,
      499.0,
      500.0,
      501.0,
      502.0,
      503.0,
      504.0,
      505.0,
      506.0,
      507.0,
      508.0,
      509.0,
      510.0,
      511.0,
      512.0,
      513.0,
      514.0,
      515.0,
      516.0,
      517.0,
      518.0,
      519.0,
      520.0,
      521.0,
      522.0,
      523.0,
      524.0,
      525.0,
      526.0,
      527.0,
      528.0,
      529.0,
      530.0,
      531.0,
      532.0,
      533.0,
      534.0,
      535.0,
      536.0,
      537.0,
      538.0,
      539.0,
      540.0,
      541.0,
      542.0,
      543.0,
      544.0,
      545.0,
      546.0,
      547.0,
      548.0,
      549.0,
      550.0,
      551.0,
      552.0,
      553.0,
      554.0,
      555.0,
      556.0,
      557.0,
      558.0,
      559.0,
      560.0,
      561.0,
      562.0,
      563.0,
      564.0,
      565.0,
      566.0,
      567.0,
      568.0,
      569.0,
      570.0,
      571.0,
      572.0,
      573.0,
      574.0,
      575.0,
      576.0,
      577.0,
      578.0,
      579.0,
      580.0,
      581.0,
      582.0,
      583.0,
      584.0,
      585.0,
      586.0,
      587.0,
      588.0,
      589.0
    ],
    "reflectance": [
      0.16095,
      0.16277,
      0.16443,
      0.16536,
      0.16666,
      0.16754,
      0.16856,
      0.16924,
      0.16991,
      0.17078,
      0.17072,
      0.1716,
      0.17126,
      0.1709,
      0.17106,
      0.16994,
      0.16928,
      0.16908,
      0.16816,
      0.16871,
      0.16963,
      0.16983,
      0.17085,
      0.17155,
      0.17256,
      0.17371,
      0.17451,
      0.17493,
      0.17513,
      0.17538,
      0.17497,
      0.17556,
      0.17573,
      0.17587,
      0.17651,
      0.17641,
      0.17633,
      0.17618,
      0.1765,
      0.17668,
      0.17661,
      0.17676,
      0.17765,
      0.17763,
      0.17744,
      0.17777,
      0.17899,
      0.18051,
      0.18121,
      0.18163,
      0.18269,
      0.18353,
      0.18442,
      0.18455,
      0.18262,
      0.18348,
      0.18321,
      0.18358,
      0.1829,
      0.18283,
      0.18296,
      0.18293,
      0.1851,
      0.18546,
      0.18581,
      0.18578,
      0.185,
      0.18496,
      0.18467,
      0.18444,
      0.18546,
      0.18508,
      0.18624,
      0.18693,
      0.18739,
      0.18784,
      0.18879,
      0.18998,
      0.19103,
      0.19302,
      0.19474,
      0.19797,
      0.20017,
      0.20341,
      0.20619,
      0.20781,
      0.2098,
      0.21183,
      0.21247,
      0.21148,
      0.2121,
      0.21037,
      0.20885,
      0.2076,
      0.20317,
      0.19381,
      0.1868,
      0.18516,
      0.19195,
      0.20238,
      0.20901,
      0.21578,
      0.22181,
      0.22802,
      0.23359,
      0.2391,
      0.24306,
      0.24735,
      0.25258,
      0.25583,
      0.25821,
      0.26054,
      0.26241,
      0.26507,
      0.26647,
      0.26816,
      0.26886,
      0.27165,
      0.27357,
      0.27367,
      0.27515,
      0.27622,
      0.27716,
      0.2789,
      0.28028,
      0.28148,
      0.28295,
      0.28237,
      0.28303,
      0.28214,
      0.28274,
      0.28159,
      0.28162,
      0.28092,
      0.28,
      0.27787,
      0.27589,
      0.27689,
      0.27741,
      0.2783,
      0.27994,
      0.28187,
      0.28406,
      0.28613,
      0.28764,
      0.29094,
      0.29398,
      0.29697,
      0.30052,
      0.30293,
      0.30425,
      0.30585,
      0.30867,
      0.31037,
      0.31158,
      0.3144,
      0.31642,
      0.3197,
      0.32089,
      0.32412,
      0.32594,
      0.32724,
      0.32835,
      0.32916,
      0.33027,
      0.33213,
      0.33367,
      0.33607,
      0.33779,
      0.33912,
      0.33915,
      0.34156,
      0.3429,
      0.3463,
      0.34728,
      0.34835,
      0.34954,
      0.35024,
      0.3519,
      0.3532
    ],
    "error": [
      0.00342,
      0.00321,
      0.00333,
      0.00331,
      0.00327,
      0.00347,
      0.00314,
      0.00303,
      0.00337,
      0.00305,
      0.003,
      0.00308,
      0.00295,
      0.00317,
      0.00294,
      0.00253,
      0.00296,
      0.00258,
      0.0027,
      0.00299,
      0.00273,
      0.00235,
      0.00225,
      0.0022,
      0.002,
      0.00212,
      0.00198,
      0.00211,
      0.00201,
      0.0021,
      0.00205,
      0.00191,
      0.00202,
      0.00195,
      0.00203,
      0.00195,
      0.00202,
      0.00234,
      0.00223,
      0.00212,
      0.00196,
      0.00181,
      0.002,
      0.00203,
      0.00211,
      0.00193,
      0.00191,
      0.00198,
      0.00191,
      0.00188,
      0.00219,
      0.00224,
      0.00253,
      0.00237,
      0.00223,
      0.00222,
      0.00224,
      0.0025,
      0.00218,
      0.00241,
      0.0023,
      0.0028,
      0.00253,
      0.00243,
      0.00275,
      0.00281,
      0.00246,
      0.00265,
      0.00234,
      0.00237,
      0.00266,
      0.00284,
      0.00221,
      0.003,
      0.00261,
      0.00244,
      0.00227,
      0.00272,
      0.0035,
      0.0032,
      0.00292,
      0.00316,
      0.00356,
      0.00329,
      0.00371,
      0.0036,
      0.00349,
      0.00398,
      0.00396,
      0.00378,
      0.00415,
      0.00387,
      0.00378,
      0.00423,
      0.00358,
      0.00357,
      0.00364,
      0.00376,
      0.00362,
      0.00407,
      0.00418,
      0.00471,
      0.00458,
      0.00505,
      0.0045,
      0.00416,
      0.00396,
      0.00347,
      0.00383,
      0.00428,
      0.00444,
      0.00468,
      0.00517,
      0.00505,
      0.00491,
      0.00516,
      0.00545,
      0.00486,
      0.00529,
      0.00543,
      0.00533,
      0.00536,
      0.00579,
      0.00568,
      0.00608,
      0.00629,
      0.00572,
      0.00508,
      0.00494,
      0.00398,
      0.00339,
      0.00309,
      0.00302,
      0.00291,
      0.00306,
      0.00314,
      0.0032,
      0.00307,
      0.00351,
      0.00347,
      0.00378,
      0.00399,
      0.00385,
      0.00384,
      0.0033,
      0.00346,
      0.00336,
      0.00337,
      0.00331,
      0.00344,
      0.00368,
      0.00341,
      0.0038,
      0.00364,
      0.00368,
      0.00348,
      0.00338,
      0.00358,
      0.00374,
      0.00373,
      0.00381,
      0.00379,
      0.00379,
      0.00375,
      0.00374,
      0.0038,
      0.00375,
      0.00381,
      0.00382,
      0.00398,
      0.00373,
      0.00383,
      0.00389,
      0.00368,
      0.00349,
      0.00358,
      0.00381,
      0.00391,
      0.00403,
      0.00438
    ]
  },
  "grain_size": {
    "min": 0,
    "max": 45,
    "unit": "micrometer"
  },
  "abundances": [],
  "description": "Spectrum downloaded from RELAB Spectral Database",
  "version": "0.0.1"
}