{
  "spectrum": {
    "wavelength": [
      410.0,
      411.0,
      412.0,
      413.0,
      414.0,
      415.0,
      416.0,
      417.0,
      418.0,
      419.0,
      420.0,
      421.0,
      422.0,
      423.0,
      424.0,
      425.0,
      426.0,
      427.0,
      428.0,
      429.0,
      430.0,
      431.0,
      432.0,
      433.0,
      434.0,
      435.0,
      436.0,
      437.0,
      438.0,
      439.0,
      440.0,
      441.0,
      442.0,
      443.0,
      444.0,
      445.0,
      446.0,
      447.0,
      448.0,
      449.0,
      450.0,
      451.0,
      452.0,
      453.0,
      454.0,
      455.0,
      456.0,
      457.0,
      458.0,
      459.0,
      460.0,
      461.0,
      462.0,
      463.0,
      464.0,
      465.0,
      466.0,
      467.0,
      468.0,
      469.0,
      470.0,
      471.0,
      472.0,
      473.0,
      474.0,
      475.0,
      476.0,
      477.0,
      478.0,
      479.0,
      480.0,
      481.0,
      482.0,
      483.0,
      484.0,
      485.0,
      486.0,
      487.0,
      488.0,
      489.0,
      490.0,
      491.0,
      492.0,
      493.0,
      494.0,
      495.0,
      496.0,
      497.0,
      498.0,
      499.0,
      500.0,
      501.0,
      502.0,
      503.0,
      504.0,
      505.0,
      506.0,
      507.0,
      508.0,
      509.0,
      510.0,
      511.0,
      512.0,
      513.0,
      514.0,
      515.0,
      516.0,
      517.0,
      518.0,
      519.0,
      520.0,
      521.0,
      522.0,
      523.0,
      524.0,
      525.0,
      526.0,
      527.0,
      528.0,
      529.0,
      530.0,
      531.0,
      532.0,
      533.0,
      534.0,
      535.0,
      536.0,
      537.0,
      538.0,
      539.0,
      540.0,
      541.0,
      542.0,
      543.0,
      544.0,
      545.0,
      546.0,
      547.0,
      548.0,
      549.0,
      550.0,
      551.0,
      552.0,
      553.0,
      554.0,
      555.0,
      556.0,
      557.0,
      558.0,
      559.0,
      560.0,
      561.0,
      562.0,
      563.0,
      564.0,
      565.0,
      566.0,
      567.0,
      568.0,
      569.0,
      570.0,
      571.0,
      572.0,
      573.0,
      574.0,
      575.0,
      576.0,
      577.0,
      578.0,
      579.0,
      580.0,
      581.0,
      582.0,
      583.0,
      584.0,
      585.0,
      586.0,
      587.0,
      588.0,
      589.0
    ],
    "reflectance": [
      0.39523,
      0.39876,
      0.40126,
      0.40363,
      0.40595,
      0.40796,
      0.4101,
      0.41203,
      0.41315,
      0.41531,
      0.41666,
      0.41716,
      0.41747,
      0.41785,
      0.4175,
      0.41702,
      0.41588,
      0.41525,
      0.41606,
      0.4172,
      0.41832,
      0.4202,
      0.422,
      0.42373,
      0.42521,
      0.42655,
      0.42826,
      0.43028,
      0.43107,
      0.43227,
      0.43347,
      0.43503,
      0.43717,
      0.43649,
      0.43747,
      0.43858,
      0.43966,
      0.44032,
      0.44102,
      0.44195,
      0.44262,
      0.4433,
      0.44396,
      0.44511,
      0.44551,
      0.44677,
      0.44767,
      0.44904,
      0.45036,
      0.4517,
      0.45285,
      0.45414,
      0.45504,
      0.45564,
      0.45583,
      0.45624,
      0.45659,
      0.45657,
      0.45659,
      0.45763,
      0.45926,
      0.45977,
      0.46109,
      0.46199,
      0.46255,
      0.46343,
      0.46374,
      0.46351,
      0.46419,
      0.46387,
      0.46439,
      0.46492,
      0.46588,
      0.46693,
      0.46795,
      0.46882,
      0.46907,
      0.46993,
      0.47075,
      0.47212,
      0.4747,
      0.47617,
      0.47902,
      0.4804,
      0.4828,
      0.48347,
      0.48499,
      0.48539,
      0.4855,
      0.48494,
      0.48244,
      0.47942,
      0.47651,
      0.47122,
      0.46077,
      0.44796,
      0.44014,
      0.44142,
      0.44742,
      0.45377,
      0.45826,
      0.46337,
      0.4697,
      0.47551,
      0.4824,
      0.48778,
      0.49233,
      0.496,
      0.49951,
      0.50226,
      0.50448,
      0.50605,
      0.50811,
      0.50892,
      0.50918,
      0.51052,
      0.51086,
      0.51145,
      0.51206,
      0.51257,
      0.51243,
      0.51268,
      0.5132,
      0.5126,
      0.51238,
      0.51184,
      0.51148,
      0.51053,
      0.51005,
      0.50866,
      0.50743,
      0.50619,
      0.50451,
      0.50291,
      0.50068,
      0.50006,
      0.49882,
      0.4975,
      0.49717,
      0.49696,
      0.49649,
      0.49798,
      0.49899,
      0.50078,
      0.50322,
      0.5054,
      0.5073,
      0.50928,
      0.51132,
      0.51319,
      0.51496,
      0.51674,
      0.51798,
      0.51943,
      0.52038,
      0.52186,
      0.52265,
      0.52387,
      0.52438,
      0.52554,
      0.52607,
      0.5268,
      0.52753,
      0.52812,
      0.52874,
      0.52958,
      0.53038,
      0.53059,
      0.53103,
      0.53152,
      0.53224,
      0.53269,
      0.53306,
      0.53337,
      0.5334,
      0.53401,
      0.53458,
      0.53504,
      0.53533,
      0.53512
    ],
    "error": [
      0.00582,
      0.00567,
      0.00569,
      0.00571,
      0.0056,
      0.00573,
      0.00544,
      0.0056,
      0.00567,
      0.00574,
      0.00553,
      0.0055,
      0.0056,
      0.00569,
      0.00558,
      0.00568,
      0.00547,
      0.00562,
      0.00542,
      0.00525,
      0.0055,
      0.0056,
      0.00552,
      0.00561,
      0.00538,
      0.00576,
      0.00574,
      0.00582,
      0.0054,
      0.00547,
      0.00565,
      0.00569,
      0.00554,
      0.00554,
      0.00563,
      0.00562,
      0.00552,
      0.0057,
      0.00565,
      0.00542,
      0.00553,
      0.00545,
      0.00564,
      0.00575,
      0.0055,
      0.00582,
      0.00576,
      0.00557,
      0.00562,
      0.00558,
      0.00598,
      0.00564,
      0.0057,
      0.00582,
      0.00595,
      0.00577,
      0.00578,
      0.00558,
      0.00554,
      0.00568,
      0.0055,
      0.00568,
      0.00573,
      0.00585,
      0.00572,
      0.00572,
      0.00584,
      0.00557,
      0.00582,
      0.00566,
      0.00538,
      0.0055,
      0.00582,
      0.00559,
      0.00575,
      0.00571,
      0.00577,
      0.00584,
      0.00576,
      0.00585,
      0.00559,
      0.00574,
      0.00603,
      0.00591,
      0.00593,
      0.00583,
      0.00598,
      0.00577,
      0.00595,
      0.00576,
      0.00553,
      0.00583,
      0.00591,
      0.00542,
      0.00552,
      0.00533,
      0.00514,
      0.00534,
      0.00537,
      0.00539,
      0.0053,
      0.00546,
      0.0055,
      0.00532,
      0.0057,
      0.0058,
      0.0054,
      0.00565,
      0.00579,
      0.00575,
      0.00585,
      0.00562,
      0.00586,
      0.00593,
      0.00578,
      0.00587,
      0.00613,
      0.00565,
      0.00573,
      0.0058,
      0.00609,
      0.00605,
      0.00598,
      0.00602,
      0.0062,
      0.00605,
      0.00607,
      0.00585,
      0.00593,
      0.00612,
      0.00592,
      0.00604,
      0.00587,
      0.00556,
      0.00552,
      0.00585,
      0.00588,
      0.00593,
      0.00577,
      0.00588,
      0.00585,
      0.0056,
      0.00569,
      0.00563,
      0.00595,
      0.00605,
      0.00614,
      0.00597,
      0.00629,
      0.00614,
      0.00612,
      0.00599,
      0.00585,
      0.00599,
      0.00604,
      0.00591,
      0.00597,
      0.00574,
      0.00573,
      0.0059,
      0.00578,
      0.00595,
      0.00581,
      0.00581,
      0.00593,
      0.00602,
      0.00593,
      0.00626,
      0.00635,
      0.00614,
      0.00616,
      0.00623,
      0.00594,
      0.00619,
      0.00605,
      0.00586,
      0.00592,
      0.00617,
      0.00631,
      0.00618
    ]
  },
  "grain_size": {
    "min": 0,
    "max": 45,
    "unit": "micrometer"
  },
  "abundances": [],
  "description": "Spectrum downloaded from RELAB Spectral Database",
  "version": "0.0.1"
}