{
  "spectrum": {
    "wavelength": [
      400.0,
      401.0,
      402.0,
      403.0,
      404.0,
      405.0,
      406.0,
      407.0,
      408.0,
      409.0,
      410.0,
      411.0,
      412.0,
      413.0,
      414.0,
      415.0,
      416.0,
      417.0,
      418.0,
      419.0,
      420.0,
      421.0,
      422.0,
      423.0,
      424.0,
      425.0,
      426.0,
      427.0,
      428.0,
      429.0,
      430.0,
      431.0,
      432.0,
      433.0,
      434.0,
      435.0,
      436.0,
      437.0,
      438.0,
      439.0,
      440.0,
      441.0,
      442.0,
      443.0,
      444.0,
      445.0,
      446.0,
      447.0,
      448.0,
      449.0,
      450.0,
      451.0,
      452.0,
      453.0,
      454.0,
      455.0,
      456.0,
      457.0,
      458.0,
      459.0,
      460.0,
      461.0,
      462.0,
      463.0,
      464.0,
      465.0,
      466.0,
      467.0,
      468.0,
      469.0,
      470.0,
      471.0,
      472.0,
      473.0,
      474.0,
      475.0,
      476.0,
      477.0,
      478.0,
      479.0,
      480.0,
      481.0,
      482.0,
      483.0,
      484.0,
      485.0,
      486.0,
      487.0,
      488.0,
      489.0,
      490.0,
      491.0,
      492.0,
      493.0,
      494.0,
      495.0,
      496.0,
      497.0,
      498.0,
      499.0,
      500.0,
      501.0,
      502.0,
      503.0,
      504.0,
      505.0,
      506.0,
      507.0,
      508.0,
      509.0,
      510.0,
      511.0,
      512.0,
      513.0,
      514.0,
      515.0,
      516.0,
      517.0,
      518.0,
      519.0,
      520.0,
      521.0,
      522.0,
      523.0,
      524.0,
      525.0,
      526.0,
      527.0,
      528.0,
      529.0,
      530.0,
      531.0,
      532.0,
      533.0,
      534.0,
      535.0,
      536.0,
      537.0,
      538.0,
      539.0,
      540.0,
      541.0,
      542.0,
      543.0,
      544.0,
      545.0,
      546.0,
      547.0,
      548.0,
      549.0,
      550.0,
      551.0,
      552.0,
      553.0,
      554.0,
      555.0,
      556.0,
      557.0,
      558.0,
      559.0,
      560.0,
      561.0,
      562.0,
      563.0,
      564.0,
      565.0,
      566.0,
      567.0,
      568.0,
      569.0,
      570.0,
      571.0,
      572.0,
      573.0,
      574.0,
      575.0,
      576.0,
      577.0,
      578.0,
      579.0,
      580.0,
      581.0,
      582.0,
      583.0,
      584.0,
      585.0,
      586.0,
      587.0,
      588.0,
      589.0,
      590.0,
      591.0,
      592.0,
      593.0,
      594.0,
      595.0,
      596.0,
      597.0,
      598.0,
      599.0
    ],
    "reflectance": [
      0.17139,
      0.17325,
      0.17416,
      0.17578,
      0.17715,
      0.17853,
      0.17906,
      0.18063,
      0.1816,
      0.18278,
      0.18396,
      0.18446,
      0.18603,
      0.18701,
      0.18798,
      0.18925,
      0.18964,
      0.19059,
      0.19128,
      0.19225,
      0.19303,
      0.19368,
      0.19429,
      0.19482,
      0.19509,
      0.19548,
      0.19571,
      0.19597,
      0.19644,
      0.19703,
      0.1975,
      0.19795,
      0.19825,
      0.19875,
      0.19897,
      0.1996,
      0.19968,
      0.20025,
      0.2005,
      0.20074,
      0.20124,
      0.20123,
      0.2017,
      0.20188,
      0.20228,
      0.20256,
      0.2029,
      0.20298,
      0.20325,
      0.20359,
      0.20391,
      0.20402,
      0.20444,
      0.20465,
      0.20506,
      0.20552,
      0.20584,
      0.20628,
      0.20662,
      0.20747,
      0.20787,
      0.20851,
      0.20903,
      0.20957,
      0.20985,
      0.2103,
      0.21082,
      0.21103,
      0.21148,
      0.21199,
      0.21245,
      0.21293,
      0.21335,
      0.2141,
      0.21442,
      0.21498,
      0.21537,
      0.21594,
      0.21611,
      0.2166,
      0.21709,
      0.21739,
      0.2178,
      0.2184,
      0.2189,
      0.21941,
      0.2198,
      0.22038,
      0.22098,
      0.22145,
      0.22219,
      0.223,
      0.224,
      0.2249,
      0.22566,
      0.22639,
      0.22711,
      0.22773,
      0.22841,
      0.22899,
      0.22937,
      0.22977,
      0.22976,
      0.23,
      0.22987,
      0.2288,
      0.22651,
      0.22511,
      0.22579,
      0.22757,
      0.22909,
      0.23001,
      0.23136,
      0.2329,
      0.23486,
      0.23661,
      0.23835,
      0.24009,
      0.24147,
      0.24279,
      0.24402,
      0.24485,
      0.24578,
      0.2468,
      0.24768,
      0.24849,
      0.24927,
      0.25016,
      0.25089,
      0.2513,
      0.2519,
      0.25243,
      0.2531,
      0.25366,
      0.25429,
      0.2549,
      0.25525,
      0.25544,
      0.25579,
      0.25601,
      0.25641,
      0.25658,
      0.25665,
      0.25693,
      0.25687,
      0.2567,
      0.25681,
      0.25701,
      0.25677,
      0.25685,
      0.25717,
      0.2573,
      0.25757,
      0.25798,
      0.25881,
      0.25946,
      0.26038,
      0.26091,
      0.2618,
      0.26264,
      0.26347,
      0.26391,
      0.26474,
      0.26524,
      0.26593,
      0.26641,
      0.26698,
      0.26752,
      0.26815,
      0.26869,
      0.26908,
      0.26951,
      0.26981,
      0.27022,
      0.27071,
      0.2712,
      0.27138,
      0.27185,
      0.27222,
      0.27254,
      0.27301,
      0.27323,
      0.27361,
      0.27396,
      0.27432,
      0.27482,
      0.27502,
      0.27503,
      0.27537,
      0.27556,
      0.27602,
      0.27632,
      0.27662,
      0.27687,
      0.2769,
      0.27734,
      0.27751,
      0.27782,
      0.27801,
      0.27836
    ],
    "error": [
      0.00517,
      0.00495,
      0.00479,
      0.00468,
      0.0047,
      0.00457,
      0.00458,
      0.00442,
      0.00416,
      0.00441,
      0.00434,
      0.00422,
      0.00418,
      0.00412,
      0.00424,
      0.00418,
      0.00418,
      0.00403,
      0.0041,
      0.00414,
      0.0039,
      0.0041,
      0.00412,
      0.00406,
      0.00401,
      0.00414,
      0.0041,
      0.0041,
      0.00413,
      0.0041,
      0.00419,
      0.0041,
      0.00424,
      0.00422,
      0.00417,
      0.0042,
      0.00418,
      0.00417,
      0.00406,
      0.00417,
      0.00408,
      0.00412,
      0.00415,
      0.00408,
      0.0041,
      0.00405,
      0.00405,
      0.00397,
      0.00392,
      0.00398,
      0.00402,
      0.00404,
      0.00397,
      0.00389,
      0.00384,
      0.00375,
      0.00389,
      0.00381,
      0.00393,
      0.00382,
      0.00389,
      0.00389,
      0.00397,
      0.00405,
      0.00398,
      0.00406,
      0.00411,
      0.00406,
      0.00412,
      0.00416,
      0.00414,
      0.00419,
      0.00432,
      0.00431,
      0.00434,
      0.00435,
      0.0044,
      0.00447,
      0.00451,
      0.0044,
      0.00449,
      0.00445,
      0.00442,
      0.00448,
      0.00442,
      0.0043,
      0.00432,
      0.00438,
      0.00432,
      0.00431,
      0.00437,
      0.0044,
      0.0044,
      0.0044,
      0.00433,
      0.00433,
      0.00433,
      0.00449,
      0.0044,
      0.00435,
      0.00439,
      0.00441,
      0.00433,
      0.0044,
      0.0043,
      0.00426,
      0.00429,
      0.00434,
      0.00436,
      0.00435,
      0.00439,
      0.00441,
      0.0045,
      0.00445,
      0.00454,
      0.00451,
      0.00461,
      0.0046,
      0.0047,
      0.00467,
      0.00478,
      0.00475,
      0.00485,
      0.00489,
      0.00486,
      0.0049,
      0.00501,
      0.00505,
      0.00501,
      0.00511,
      0.00504,
      0.00509,
      0.00504,
      0.00509,
      0.00513,
      0.00512,
      0.00514,
      0.00507,
      0.00522,
      0.00518,
      0.00525,
      0.0052,
      0.00523,
      0.00525,
      0.00516,
      0.00527,
      0.00532,
      0.00532,
      0.00528,
      0.00525,
      0.00541,
      0.00527,
      0.00527,
      0.00538,
      0.00552,
      0.00533,
      0.00538,
      0.00543,
      0.0055,
      0.00558,
      0.00559,
      0.00548,
      0.00564,
      0.00554,
      0.00563,
      0.00554,
      0.0056,
      0.00554,
      0.00579,
      0.00566,
      0.00568,
      0.00567,
      0.00568,
      0.00574,
      0.00583,
      0.0058,
      0.00565,
      0.00574,
      0.00581,
      0.00582,
      0.00579,
      0.00587,
      0.00589,
      0.00587,
      0.00596,
      0.00595,
      0.00589,
      0.00604,
      0.00598,
      0.00607,
      0.00604,
      0.00591,
      0.00606,
      0.00607,
      0.00599,
      0.00611,
      0.00609,
      0.00609,
      0.00615,
      0.00629
    ]
  },
  "grain_size": {
    "min": 0,
    "max": 45,
    "unit": "micrometer"
  },
  "abundances": [],
  "description": "Spectrum downloaded from RELAB Spectral Database",
  "version": "0.0.1"
}