{
  "spectrum": {
    "wavelength": [
      400.0,
      401.0,
      402.0,
      403.0,
      404.0,
      405.0,
      406.0,
      407.0,
      408.0,
      409.0,
      410.0,
      411.0,
      412.0,
      413.0,
      414.0,
      415.0,
      416.0,
      417.0,
      418.0,
      419.0,
      420.0,
      421.0,
      422.0,
      423.0,
      424.0,
      425.0,
      426.0,
      427.0,
      428.0,
      429.0,
      430.0,
      431.0,
      432.0,
      433.0,
      434.0,
      435.0,
      436.0,
      437.0,
      438.0,
      439.0,
      440.0,
      441.0,
      442.0,
      443.0,
      444.0,
      445.0,
      446.0,
      447.0,
      448.0,
      449.0,
      450.0,
      451.0,
      452.0,
      453.0,
      454.0,
      455.0,
      456.0,
      457.0,
      458.0,
      459.0,
      460.0,
      461.0,
      462.0,
      463.0,
      464.0,
      465.0,
      466.0,
      467.0,
      468.0,
      469.0,
      470.0,
      471.0,
      472.0,
      473.0,
      474.0,
      475.0,
      476.0,
      477.0,
      478.0,
      479.0,
      480.0,
      481.0,
      482.0,
      483.0,
      484.0,
      485.0,
      486.0,
      487.0,
      488.0,
      489.0,
      490.0,
      491.0,
      492.0,
      493.0,
      494.0,
      495.0,
      496.0,
      497.0,
      498.0,
      499.0,
      500.0,
      501.0,
      502.0,
      503.0,
      504.0,
      505.0,
      506.0,
      507.0,
      508.0,
      509.0,
      510.0,
      511.0,
      512.0,
      513.0,
      514.0,
      515.0,
      516.0,
      517.0,
      518.0,
      519.0,
      520.0,
      521.0,
      522.0,
      523.0,
      524.0,
      525.0,
      526.0,
      527.0,
      528.0,
      529.0,
      530.0,
      531.0,
      532.0,
      533.0,
      534.0,
      535.0,
      536.0,
      537.0,
      538.0,
      539.0,
      540.0,
      541.0,
      542.0,
      543.0,
      544.0,
      545.0,
      546.0,
      547.0,
      548.0,
      549.0,
      550.0,
      551.0,
      552.0,
      553.0,
      554.0,
      555.0,
      556.0,
      557.0,
      558.0,
      559.0,
      560.0,
      561.0,
      562.0,
      563.0,
      564.0,
      565.0,
      566.0,
      567.0,
      568.0,
      569.0,
      570.0,
      571.0,
      572.0,
      573.0,
      574.0,
      575.0,
      576.0,
      577.0,
      578.0,
      579.0,
      580.0,
      581.0,
      582.0,
      583.0,
      584.0,
      585.0,
      586.0,
      587.0,
      588.0,
      589.0,
      590.0,
      591.0,
      592.0,
      593.0,
      594.0,
      595.0,
      596.0,
      597.0,
      598.0,
      599.0
    ],
    "reflectance": [
      0.31478,
      0.32244,
      0.32815,
      0.3346,
      0.34102,
      0.34704,
      0.35263,
      0.35784,
      0.36245,
      0.36689,
      0.37014,
      0.37306,
      0.37608,
      0.37903,
      0.38152,
      0.38429,
      0.3871,
      0.38941,
      0.39167,
      0.39398,
      0.39661,
      0.39986,
      0.40166,
      0.40421,
      0.40573,
      0.40798,
      0.40938,
      0.41007,
      0.41104,
      0.41157,
      0.41089,
      0.41044,
      0.4089,
      0.40731,
      0.40513,
      0.40505,
      0.40334,
      0.40302,
      0.40336,
      0.40423,
      0.40637,
      0.40901,
      0.41072,
      0.41327,
      0.41657,
      0.41857,
      0.42019,
      0.42245,
      0.42447,
      0.42622,
      0.42811,
      0.42909,
      0.43063,
      0.43174,
      0.43325,
      0.43483,
      0.43615,
      0.43809,
      0.44024,
      0.44232,
      0.44431,
      0.44632,
      0.44783,
      0.44965,
      0.45067,
      0.45099,
      0.45151,
      0.45226,
      0.45245,
      0.45184,
      0.45242,
      0.45283,
      0.4535,
      0.45427,
      0.45514,
      0.45602,
      0.45692,
      0.45763,
      0.45844,
      0.4592,
      0.4602,
      0.46162,
      0.46237,
      0.46306,
      0.46405,
      0.46475,
      0.46531,
      0.46629,
      0.46727,
      0.46857,
      0.47122,
      0.47324,
      0.47617,
      0.47964,
      0.48181,
      0.48439,
      0.48607,
      0.48723,
      0.48828,
      0.48824,
      0.48734,
      0.48538,
      0.48347,
      0.47945,
      0.47434,
      0.46762,
      0.45904,
      0.44807,
      0.43531,
      0.42301,
      0.41472,
      0.41338,
      0.41846,
      0.42752,
      0.43899,
      0.45013,
      0.46058,
      0.4705,
      0.47966,
      0.48662,
      0.49359,
      0.49925,
      0.50357,
      0.50705,
      0.51013,
      0.51269,
      0.5153,
      0.51674,
      0.51815,
      0.51998,
      0.52177,
      0.52269,
      0.52354,
      0.5247,
      0.52526,
      0.52596,
      0.52592,
      0.52508,
      0.52501,
      0.52443,
      0.52332,
      0.52202,
      0.52044,
      0.5183,
      0.51596,
      0.51314,
      0.51026,
      0.50766,
      0.50477,
      0.50104,
      0.49801,
      0.49615,
      0.49568,
      0.49667,
      0.49906,
      0.50251,
      0.50648,
      0.51104,
      0.51562,
      0.51985,
      0.52502,
      0.52831,
      0.53214,
      0.53534,
      0.53879,
      0.5416,
      0.54347,
      0.54576,
      0.54767,
      0.54965,
      0.55177,
      0.55235,
      0.55344,
      0.55472,
      0.55599,
      0.5573,
      0.55815,
      0.55822,
      0.55884,
      0.56005,
      0.5606,
      0.56077,
      0.56123,
      0.56157,
      0.5624,
      0.56277,
      0.56326,
      0.5637,
      0.56383,
      0.56404,
      0.56422,
      0.56492,
      0.56479,
      0.56479,
      0.5649,
      0.56526,
      0.56565,
      0.5659,
      0.56595,
      0.56586
    ],
    "error": [
      0.00524,
      0.00497,
      0.00501,
      0.00511,
      0.00484,
      0.00481,
      0.00488,
      0.00477,
      0.00468,
      0.00486,
      0.00467,
      0.00475,
      0.0045,
      0.00464,
      0.0048,
      0.0046,
      0.00454,
      0.00455,
      0.00469,
      0.00457,
      0.00459,
      0.00478,
      0.0048,
      0.00494,
      0.00484,
      0.00476,
      0.00483,
      0.00473,
      0.00481,
      0.00463,
      0.00481,
      0.0047,
      0.00474,
      0.00473,
      0.00477,
      0.0047,
      0.00463,
      0.00452,
      0.00474,
      0.00468,
      0.00488,
      0.00468,
      0.00506,
      0.00517,
      0.00498,
      0.00506,
      0.00509,
      0.00509,
      0.00513,
      0.00524,
      0.00566,
      0.00553,
      0.0057,
      0.00549,
      0.00572,
      0.00553,
      0.00571,
      0.00589,
      0.00573,
      0.00578,
      0.00587,
      0.00605,
      0.00608,
      0.00611,
      0.00629,
      0.00612,
      0.00587,
      0.00604,
      0.00625,
      0.0062,
      0.00637,
      0.00632,
      0.00638,
      0.00624,
      0.00622,
      0.00617,
      0.00634,
      0.00604,
      0.00636,
      0.00622,
      0.00661,
      0.0065,
      0.00663,
      0.00661,
      0.00651,
      0.00679,
      0.00657,
      0.0069,
      0.00651,
      0.00702,
      0.00695,
      0.00699,
      0.00709,
      0.00711,
      0.00733,
      0.00716,
      0.00707,
      0.0076,
      0.00733,
      0.0074,
      0.00749,
      0.0074,
      0.00733,
      0.00734,
      0.00739,
      0.00678,
      0.00705,
      0.00693,
      0.00646,
      0.0064,
      0.00628,
      0.00621,
      0.00614,
      0.00647,
      0.00677,
      0.00704,
      0.00713,
      0.00708,
      0.00757,
      0.00765,
      0.00784,
      0.00827,
      0.00839,
      0.00851,
      0.00863,
      0.00898,
      0.00866,
      0.00886,
      0.00893,
      0.00901,
      0.00902,
      0.00873,
      0.00884,
      0.00902,
      0.00919,
      0.00925,
      0.0094,
      0.00911,
      0.00906,
      0.00888,
      0.00907,
      0.00902,
      0.00917,
      0.00889,
      0.00875,
      0.00902,
      0.00905,
      0.0089,
      0.00912,
      0.00879,
      0.0087,
      0.00893,
      0.00908,
      0.00893,
      0.00885,
      0.00891,
      0.00894,
      0.00933,
      0.00945,
      0.00976,
      0.00972,
      0.01015,
      0.00999,
      0.01007,
      0.01,
      0.01048,
      0.01086,
      0.01078,
      0.01075,
      0.01059,
      0.01076,
      0.01081,
      0.01098,
      0.01094,
      0.011,
      0.01096,
      0.01126,
      0.01126,
      0.01122,
      0.01113,
      0.01137,
      0.01121,
      0.01116,
      0.01146,
      0.01152,
      0.01116,
      0.01117,
      0.01147,
      0.01149,
      0.01182,
      0.0116,
      0.01145,
      0.01136,
      0.01158,
      0.01155,
      0.01164,
      0.01176,
      0.01152,
      0.01162,
      0.01216
    ]
  },
  "grain_size": {
    "min": 0,
    "max": 45,
    "unit": "micrometer"
  },
  "abundances": [],
  "description": "Spectrum downloaded from RELAB Spectral Database",
  "version": "0.0.1"
}