{
  "spectrum": {
    "wavelength": [
      400.0,
      401.0,
      402.0,
      403.0,
      404.0,
      405.0,
      406.0,
      407.0,
      408.0,
      409.0,
      410.0,
      411.0,
      412.0,
      413.0,
      414.0,
      415.0,
      416.0,
      417.0,
      418.0,
      419.0,
      420.0,
      421.0,
      422.0,
      423.0,
      424.0,
      425.0,
      426.0,
      427.0,
      428.0,
      429.0,
      430.0,
      431.0,
      432.0,
      433.0,
      434.0,
      435.0,
      436.0,
      437.0,
      438.0,
      439.0,
      440.0,
      441.0,
      442.0,
      443.0,
      444.0,
      445.0,
      446.0,
      447.0,
      448.0,
      449.0,
      450.0,
      451.0,
      452.0,
      453.0,
      454.0,
      455.0,
      456.0,
      457.0,
      458.0,
      459.0,
      460.0,
      461.0,
      462.0,
      463.0,
      464.0,
      465.0,
      466.0,
      467.0,
      468.0,
      469.0,
      470.0,
      471.0,
      472.0,
      473.0,
      474.0,
      475.0,
      476.0,
      477.0,
      478.0,
      479.0,
      480.0,
      481.0,
      482.0,
      483.0,
      484.0,
      485.0,
      486.0,
      487.0,
      488.0,
      489.0,
      490.0,
      491.0,
      492.0,
      493.0,
      494.0,
      495.0,
      496.0,
      497.0,
      498.0,
      499.0,
      500.0,
      501.0,
      502.0,
      503.0,
      504.0,
      505.0,
      506.0,
      507.0,
      508.0,
      509.0,
      510.0,
      511.0,
      512.0,
      513.0,
      514.0,
      515.0,
      516.0,
      517.0,
      518.0,
      519.0,
      520.0,
      521.0,
      522.0,
      523.0,
      524.0,
      525.0,
      526.0,
      527.0,
      528.0,
      529.0,
      530.0,
      531.0,
      532.0,
      533.0,
      534.0,
      535.0,
      536.0,
      537.0,
      538.0,
      539.0,
      540.0,
      541.0,
      542.0,
      543.0,
      544.0,
      545.0,
      546.0,
      547.0,
      548.0,
      549.0,
      550.0,
      551.0,
      552.0,
      553.0,
      554.0,
      555.0,
      556.0,
      557.0,
      558.0,
      559.0,
      560.0,
      561.0,
      562.0,
      563.0,
      564.0,
      565.0,
      566.0,
      567.0,
      568.0,
      569.0,
      570.0,
      571.0,
      572.0,
      573.0,
      574.0,
      575.0,
      576.0,
      577.0,
      578.0,
      579.0,
      580.0,
      581.0,
      582.0,
      583.0,
      584.0,
      585.0,
      586.0,
      587.0,
      588.0,
      589.0,
      590.0,
      591.0,
      592.0,
      593.0,
      594.0,
      595.0,
      596.0,
      597.0,
      598.0,
      599.0
    ],
    "reflectance": [
      0.15137,
      0.15565,
      0.15878,
      0.16167,
      0.16472,
      0.16776,
      0.17041,
      0.17331,
      0.17612,
      0.17859,
      0.18068,
      0.18287,
      0.185,
      0.18706,
      0.18902,
      0.19099,
      0.19271,
      0.19448,
      0.19593,
      0.19758,
      0.19907,
      0.20056,
      0.20209,
      0.20354,
      0.20475,
      0.20569,
      0.2066,
      0.20734,
      0.20793,
      0.20836,
      0.20874,
      0.20856,
      0.2084,
      0.20816,
      0.20768,
      0.20742,
      0.20688,
      0.20655,
      0.20676,
      0.20656,
      0.20672,
      0.20674,
      0.20713,
      0.20745,
      0.20748,
      0.20764,
      0.20784,
      0.2079,
      0.20782,
      0.20788,
      0.20805,
      0.2081,
      0.20814,
      0.20836,
      0.20876,
      0.20901,
      0.20946,
      0.20995,
      0.21093,
      0.21206,
      0.2128,
      0.21388,
      0.21517,
      0.21596,
      0.21727,
      0.21819,
      0.21907,
      0.22027,
      0.22106,
      0.22205,
      0.22324,
      0.22415,
      0.22548,
      0.22663,
      0.22769,
      0.22856,
      0.22965,
      0.23082,
      0.2319,
      0.23309,
      0.23402,
      0.23501,
      0.23595,
      0.23707,
      0.23795,
      0.23903,
      0.23959,
      0.2407,
      0.2417,
      0.24299,
      0.24457,
      0.24618,
      0.24799,
      0.24999,
      0.25181,
      0.2536,
      0.25538,
      0.2565,
      0.25827,
      0.25991,
      0.26106,
      0.26201,
      0.26316,
      0.26383,
      0.26428,
      0.26392,
      0.26298,
      0.26088,
      0.25745,
      0.2539,
      0.25211,
      0.25409,
      0.25811,
      0.26403,
      0.26962,
      0.27526,
      0.28033,
      0.28508,
      0.28991,
      0.29422,
      0.29792,
      0.30136,
      0.30468,
      0.30762,
      0.31069,
      0.31368,
      0.31602,
      0.31888,
      0.32127,
      0.32372,
      0.3264,
      0.32855,
      0.33072,
      0.33263,
      0.33518,
      0.33682,
      0.33868,
      0.34037,
      0.34142,
      0.3428,
      0.34385,
      0.34521,
      0.34589,
      0.34633,
      0.34682,
      0.34723,
      0.34709,
      0.34679,
      0.34646,
      0.34631,
      0.34616,
      0.34658,
      0.34763,
      0.34915,
      0.3516,
      0.35369,
      0.35685,
      0.35924,
      0.36217,
      0.36446,
      0.36693,
      0.36918,
      0.37141,
      0.37322,
      0.37548,
      0.37683,
      0.37872,
      0.38017,
      0.3813,
      0.38307,
      0.38441,
      0.38515,
      0.3864,
      0.38779,
      0.38845,
      0.38949,
      0.3904,
      0.391,
      0.39214,
      0.39254,
      0.39351,
      0.39394,
      0.39467,
      0.39554,
      0.39598,
      0.39643,
      0.39706,
      0.39757,
      0.39796,
      0.39888,
      0.39905,
      0.39948,
      0.40024,
      0.40043,
      0.40055,
      0.40095,
      0.40151,
      0.40149,
      0.40199,
      0.40221
    ],
    "error": [
      0.00387,
      0.00377,
      0.00358,
      0.00348,
      0.0034,
      0.00331,
      0.00318,
      0.00316,
      0.00299,
      0.00298,
      0.00293,
      0.00297,
      0.00285,
      0.00284,
      0.00276,
      0.00283,
      0.00285,
      0.00285,
      0.00278,
      0.00273,
      0.00271,
      0.00279,
      0.00265,
      0.00284,
      0.00263,
      0.00277,
      0.00263,
      0.00278,
      0.00267,
      0.00261,
      0.00268,
      0.00266,
      0.00263,
      0.0026,
      0.00257,
      0.00253,
      0.0025,
      0.00256,
      0.00255,
      0.00259,
      0.00262,
      0.00255,
      0.00252,
      0.00255,
      0.00255,
      0.00254,
      0.00248,
      0.00252,
      0.0025,
      0.00254,
      0.00255,
      0.00263,
      0.00247,
      0.00249,
      0.0025,
      0.00244,
      0.0025,
      0.00253,
      0.0026,
      0.00253,
      0.00251,
      0.00256,
      0.00248,
      0.00258,
      0.00259,
      0.00257,
      0.00266,
      0.00256,
      0.00254,
      0.00252,
      0.00274,
      0.00264,
      0.00271,
      0.00264,
      0.00276,
      0.00275,
      0.00261,
      0.00267,
      0.00269,
      0.00267,
      0.00278,
      0.00273,
      0.00279,
      0.00285,
      0.00272,
      0.0028,
      0.00288,
      0.00285,
      0.00291,
      0.00287,
      0.00297,
      0.00286,
      0.00297,
      0.00305,
      0.0029,
      0.00292,
      0.00318,
      0.0031,
      0.00299,
      0.00306,
      0.003,
      0.00307,
      0.0032,
      0.00306,
      0.00321,
      0.00321,
      0.00315,
      0.00305,
      0.003,
      0.00316,
      0.00306,
      0.00289,
      0.00294,
      0.00322,
      0.00323,
      0.00317,
      0.0033,
      0.00354,
      0.00344,
      0.00346,
      0.00364,
      0.00376,
      0.00376,
      0.00365,
      0.00364,
      0.00369,
      0.00378,
      0.00369,
      0.0036,
      0.0038,
      0.00379,
      0.00416,
      0.00415,
      0.00416,
      0.00401,
      0.00407,
      0.00396,
      0.00409,
      0.00418,
      0.0041,
      0.00412,
      0.00442,
      0.00455,
      0.00434,
      0.00432,
      0.00439,
      0.00432,
      0.00444,
      0.00425,
      0.00415,
      0.00419,
      0.00423,
      0.00432,
      0.00435,
      0.00407,
      0.00416,
      0.00424,
      0.00472,
      0.00457,
      0.0045,
      0.00476,
      0.00483,
      0.00477,
      0.00457,
      0.00484,
      0.00471,
      0.00461,
      0.00455,
      0.0049,
      0.00487,
      0.00517,
      0.00512,
      0.00497,
      0.00511,
      0.00496,
      0.00505,
      0.00503,
      0.00508,
      0.0051,
      0.00533,
      0.00508,
      0.00532,
      0.00554,
      0.00526,
      0.00543,
      0.0055,
      0.00546,
      0.00538,
      0.00543,
      0.00533,
      0.00551,
      0.0056,
      0.00543,
      0.00542,
      0.00531,
      0.00536,
      0.00522,
      0.00502,
      0.0049,
      0.005
    ]
  },
  "grain_size": {
    "min": 0,
    "max": 45,
    "unit": "micrometer"
  },
  "abundances": [],
  "description": "Spectrum downloaded from RELAB Spectral Database",
  "version": "0.0.1"
}