{
  "spectrum": {
    "wavelength": [
      400.0,
      401.0,
      402.0,
      403.0,
      404.0,
      405.0,
      406.0,
      407.0,
      408.0,
      409.0,
      410.0,
      411.0,
      412.0,
      413.0,
      414.0,
      415.0,
      416.0,
      417.0,
      418.0,
      419.0,
      420.0,
      421.0,
      422.0,
      423.0,
      424.0,
      425.0,
      426.0,
      427.0,
      428.0,
      429.0,
      430.0,
      431.0,
      432.0,
      433.0,
      434.0,
      435.0,
      436.0,
      437.0,
      438.0,
      439.0,
      440.0,
      441.0,
      442.0,
      443.0,
      444.0,
      445.0,
      446.0,
      447.0,
      448.0,
      449.0,
      450.0,
      451.0,
      452.0,
      453.0,
      454.0,
      455.0,
      456.0,
      457.0,
      458.0,
      459.0,
      460.0,
      461.0,
      462.0,
      463.0,
      464.0,
      465.0,
      466.0,
      467.0,
      468.0,
      469.0,
      470.0,
      471.0,
      472.0,
      473.0,
      474.0,
      475.0,
      476.0,
      477.0,
      478.0,
      479.0,
      480.0,
      481.0,
      482.0,
      483.0,
      484.0,
      485.0,
      486.0,
      487.0,
      488.0,
      489.0,
      490.0,
      491.0,
      492.0,
      493.0,
      494.0,
      495.0,
      496.0,
      497.0,
      498.0,
      499.0,
      500.0,
      501.0,
      502.0,
      503.0,
      504.0,
      505.0,
      506.0,
      507.0,
      508.0,
      509.0,
      510.0,
      511.0,
      512.0,
      513.0,
      514.0,
      515.0,
      516.0,
      517.0,
      518.0,
      519.0,
      520.0,
      521.0,
      522.0,
      523.0,
      524.0,
      525.0,
      526.0,
      527.0,
      528.0,
      529.0,
      530.0,
      531.0,
      532.0,
      533.0,
      534.0,
      535.0,
      536.0,
      537.0,
      538.0,
      539.0,
      540.0,
      541.0,
      542.0,
      543.0,
      544.0,
      545.0,
      546.0,
      547.0,
      548.0,
      549.0,
      550.0,
      551.0,
      552.0,
      553.0,
      554.0,
      555.0,
      556.0,
      557.0,
      558.0,
      559.0,
      560.0,
      561.0,
      562.0,
      563.0,
      564.0,
      565.0,
      566.0,
      567.0,
      568.0,
      569.0,
      570.0,
      571.0,
      572.0,
      573.0,
      574.0,
      575.0,
      576.0,
      577.0,
      578.0,
      579.0,
      580.0,
      581.0,
      582.0,
      583.0,
      584.0,
      585.0,
      586.0,
      587.0,
      588.0,
      589.0,
      590.0,
      591.0,
      592.0,
      593.0,
      594.0,
      595.0,
      596.0,
      597.0,
      598.0,
      599.0
    ],
    "reflectance": [
      0.16261,
      0.16596,
      0.16818,
      0.1706,
      0.17283,
      0.17491,
      0.17723,
      0.17933,
      0.18089,
      0.18295,
      0.18441,
      0.18579,
      0.18746,
      0.18873,
      0.19004,
      0.19147,
      0.19282,
      0.1941,
      0.19528,
      0.1966,
      0.19769,
      0.19884,
      0.20024,
      0.20154,
      0.20249,
      0.20366,
      0.20455,
      0.20528,
      0.20595,
      0.20649,
      0.20695,
      0.20715,
      0.20736,
      0.20735,
      0.20721,
      0.20718,
      0.20722,
      0.20717,
      0.20761,
      0.2082,
      0.20869,
      0.20917,
      0.2101,
      0.21092,
      0.21167,
      0.21209,
      0.21285,
      0.21339,
      0.21397,
      0.21458,
      0.21506,
      0.2156,
      0.21601,
      0.2164,
      0.21685,
      0.21751,
      0.21804,
      0.21872,
      0.21969,
      0.22054,
      0.22106,
      0.22224,
      0.22339,
      0.2238,
      0.22475,
      0.22545,
      0.22582,
      0.22661,
      0.22702,
      0.22762,
      0.22815,
      0.22878,
      0.22974,
      0.23039,
      0.23097,
      0.23154,
      0.23214,
      0.23278,
      0.23343,
      0.2341,
      0.23497,
      0.23552,
      0.23613,
      0.23673,
      0.23766,
      0.23831,
      0.23885,
      0.23947,
      0.2403,
      0.24115,
      0.2422,
      0.24337,
      0.24452,
      0.24603,
      0.24718,
      0.24854,
      0.24945,
      0.25015,
      0.25128,
      0.25197,
      0.25253,
      0.25283,
      0.25326,
      0.25304,
      0.25274,
      0.25179,
      0.25016,
      0.24727,
      0.24393,
      0.24088,
      0.23937,
      0.24085,
      0.24355,
      0.24715,
      0.25089,
      0.25477,
      0.25811,
      0.26109,
      0.26415,
      0.26659,
      0.26903,
      0.27085,
      0.27262,
      0.27395,
      0.27542,
      0.27684,
      0.27821,
      0.27934,
      0.28017,
      0.28119,
      0.28233,
      0.28349,
      0.28427,
      0.28486,
      0.28561,
      0.28632,
      0.28699,
      0.2874,
      0.28782,
      0.28821,
      0.28834,
      0.2886,
      0.28874,
      0.28841,
      0.28857,
      0.28842,
      0.28776,
      0.28751,
      0.28695,
      0.28638,
      0.28633,
      0.28586,
      0.28626,
      0.28717,
      0.28819,
      0.28954,
      0.29109,
      0.29215,
      0.294,
      0.29539,
      0.29664,
      0.29777,
      0.29896,
      0.29992,
      0.30114,
      0.302,
      0.30301,
      0.30368,
      0.30431,
      0.30514,
      0.30576,
      0.30627,
      0.30667,
      0.30737,
      0.30784,
      0.30831,
      0.30876,
      0.30928,
      0.30981,
      0.30992,
      0.31013,
      0.31075,
      0.31111,
      0.31133,
      0.31157,
      0.31187,
      0.31238,
      0.31277,
      0.31253,
      0.31314,
      0.31341,
      0.3135,
      0.31395,
      0.31413,
      0.31419,
      0.31445,
      0.31472,
      0.31488,
      0.3148,
      0.31528
    ],
    "error": [
      0.00373,
      0.00348,
      0.00325,
      0.00316,
      0.00302,
      0.0029,
      0.0028,
      0.00272,
      0.00259,
      0.00248,
      0.00239,
      0.00229,
      0.00224,
      0.00222,
      0.00212,
      0.00209,
      0.00212,
      0.00202,
      0.00195,
      0.002,
      0.00192,
      0.00184,
      0.00179,
      0.00185,
      0.00175,
      0.00173,
      0.00172,
      0.0017,
      0.00168,
      0.00157,
      0.00166,
      0.00161,
      0.00156,
      0.00159,
      0.00158,
      0.00156,
      0.00156,
      0.00155,
      0.0015,
      0.0015,
      0.00149,
      0.00153,
      0.00151,
      0.00151,
      0.00149,
      0.0014,
      0.00146,
      0.00154,
      0.00147,
      0.0014,
      0.00141,
      0.00141,
      0.00136,
      0.00134,
      0.00133,
      0.00145,
      0.00145,
      0.00145,
      0.00147,
      0.00144,
      0.00147,
      0.00144,
      0.00135,
      0.00135,
      0.00144,
      0.00133,
      0.00147,
      0.00145,
      0.00146,
      0.00138,
      0.00139,
      0.00147,
      0.00147,
      0.00141,
      0.00142,
      0.00147,
      0.00142,
      0.00147,
      0.00143,
      0.00137,
      0.00146,
      0.00152,
      0.00143,
      0.0015,
      0.00138,
      0.00136,
      0.00146,
      0.00138,
      0.00151,
      0.00144,
      0.00144,
      0.00135,
      0.00145,
      0.00153,
      0.00148,
      0.00142,
      0.00145,
      0.00143,
      0.00142,
      0.00151,
      0.00143,
      0.00136,
      0.00148,
      0.00147,
      0.00159,
      0.00158,
      0.00145,
      0.00156,
      0.00156,
      0.00149,
      0.00147,
      0.00147,
      0.00148,
      0.00174,
      0.00164,
      0.00155,
      0.00169,
      0.00162,
      0.00165,
      0.00162,
      0.00171,
      0.00186,
      0.00172,
      0.0017,
      0.00175,
      0.0017,
      0.00173,
      0.00165,
      0.0016,
      0.00173,
      0.00183,
      0.0019,
      0.00183,
      0.00184,
      0.00199,
      0.0018,
      0.00184,
      0.00182,
      0.00178,
      0.00165,
      0.00163,
      0.00169,
      0.00158,
      0.00168,
      0.00155,
      0.0016,
      0.00176,
      0.00154,
      0.00167,
      0.00163,
      0.00165,
      0.00166,
      0.00161,
      0.0017,
      0.0016,
      0.00177,
      0.00172,
      0.0017,
      0.00168,
      0.00166,
      0.00168,
      0.00176,
      0.00178,
      0.00166,
      0.00177,
      0.00182,
      0.00189,
      0.00176,
      0.00185,
      0.00197,
      0.00199,
      0.00195,
      0.00197,
      0.0019,
      0.002,
      0.00198,
      0.00208,
      0.00192,
      0.0021,
      0.00203,
      0.00213,
      0.00214,
      0.00203,
      0.00225,
      0.00232,
      0.00205,
      0.00208,
      0.00204,
      0.00202,
      0.00196,
      0.00212,
      0.00204,
      0.0022,
      0.00205,
      0.00201,
      0.00207,
      0.002,
      0.00208,
      0.00215,
      0.00216
    ]
  },
  "grain_size": {
    "min": 0,
    "max": 45,
    "unit": "micrometer"
  },
  "abundances": [],
  "description": "Spectrum downloaded from RELAB Spectral Database",
  "version": "0.0.1"
}