{
  "spectrum": {
    "wavelength": [
      400.0,
      401.0,
      402.0,
      403.0,
      404.0,
      405.0,
      406.0,
      407.0,
      408.0,
      409.0,
      410.0,
      411.0,
      412.0,
      413.0,
      414.0,
      415.0,
      416.0,
      417.0,
      418.0,
      419.0,
      420.0,
      421.0,
      422.0,
      423.0,
      424.0,
      425.0,
      426.0,
      427.0,
      428.0,
      429.0,
      430.0,
      431.0,
      432.0,
      433.0,
      434.0,
      435.0,
      436.0,
      437.0,
      438.0,
      439.0,
      440.0,
      441.0,
      442.0,
      443.0,
      444.0,
      445.0,
      446.0,
      447.0,
      448.0,
      449.0,
      450.0,
      451.0,
      452.0,
      453.0,
      454.0,
      455.0,
      456.0,
      457.0,
      458.0,
      459.0,
      460.0,
      461.0,
      462.0,
      463.0,
      464.0,
      465.0,
      466.0,
      467.0,
      468.0,
      469.0,
      470.0,
      471.0,
      472.0,
      473.0,
      474.0,
      475.0,
      476.0,
      477.0,
      478.0,
      479.0,
      480.0,
      481.0,
      482.0,
      483.0,
      484.0,
      485.0,
      486.0,
      487.0,
      488.0,
      489.0,
      490.0,
      491.0,
      492.0,
      493.0,
      494.0,
      495.0,
      496.0,
      497.0,
      498.0,
      499.0,
      500.0,
      501.0,
      502.0,
      503.0,
      504.0,
      505.0,
      506.0,
      507.0,
      508.0,
      509.0,
      510.0,
      511.0,
      512.0,
      513.0,
      514.0,
      515.0,
      516.0,
      517.0,
      518.0,
      519.0,
      520.0,
      521.0,
      522.0,
      523.0,
      524.0,
      525.0,
      526.0,
      527.0,
      528.0,
      529.0,
      530.0,
      531.0,
      532.0,
      533.0,
      534.0,
      535.0,
      536.0,
      537.0,
      538.0,
      539.0,
      540.0,
      541.0,
      542.0,
      543.0,
      544.0,
      545.0,
      546.0,
      547.0,
      548.0,
      549.0,
      550.0,
      551.0,
      552.0,
      553.0,
      554.0,
      555.0,
      556.0,
      557.0,
      558.0,
      559.0,
      560.0,
      561.0,
      562.0,
      563.0,
      564.0,
      565.0,
      566.0,
      567.0,
      568.0,
      569.0,
      570.0,
      571.0,
      572.0,
      573.0,
      574.0,
      575.0,
      576.0,
      577.0,
      578.0,
      579.0,
      580.0,
      581.0,
      582.0,
      583.0,
      584.0,
      585.0,
      586.0,
      587.0,
      588.0,
      589.0,
      590.0,
      591.0,
      592.0,
      593.0,
      594.0,
      595.0,
      596.0,
      597.0,
      598.0,
      599.0
    ],
    "reflectance": [
      0.41518,
      0.42016,
      0.42297,
      0.42606,
      0.42904,
      0.43194,
      0.43499,
      0.43799,
      0.44042,
      0.44303,
      0.44544,
      0.44752,
      0.45041,
      0.45266,
      0.45439,
      0.45631,
      0.45843,
      0.45964,
      0.46177,
      0.46321,
      0.46471,
      0.46634,
      0.46748,
      0.46828,
      0.46984,
      0.47071,
      0.47069,
      0.47178,
      0.47248,
      0.47326,
      0.47417,
      0.47525,
      0.47647,
      0.47695,
      0.47795,
      0.47882,
      0.47956,
      0.48066,
      0.48106,
      0.48216,
      0.48322,
      0.48378,
      0.48472,
      0.48558,
      0.48651,
      0.48709,
      0.48757,
      0.48847,
      0.48886,
      0.48972,
      0.4903,
      0.49101,
      0.49234,
      0.49343,
      0.49422,
      0.49509,
      0.49599,
      0.49736,
      0.49866,
      0.49974,
      0.50106,
      0.50294,
      0.50413,
      0.50498,
      0.50581,
      0.50666,
      0.5077,
      0.5084,
      0.50907,
      0.51008,
      0.51108,
      0.51286,
      0.51363,
      0.51481,
      0.51596,
      0.51663,
      0.51772,
      0.51876,
      0.51937,
      0.52022,
      0.52118,
      0.52206,
      0.52293,
      0.52417,
      0.52475,
      0.52561,
      0.52607,
      0.52722,
      0.52812,
      0.52946,
      0.5305,
      0.53183,
      0.53342,
      0.53517,
      0.53653,
      0.53808,
      0.5394,
      0.54022,
      0.54113,
      0.54148,
      0.54159,
      0.54156,
      0.541,
      0.54011,
      0.53826,
      0.53272,
      0.52639,
      0.52322,
      0.52596,
      0.5285,
      0.53074,
      0.53342,
      0.53642,
      0.54041,
      0.54482,
      0.54902,
      0.5525,
      0.55555,
      0.55861,
      0.56109,
      0.56334,
      0.56505,
      0.5667,
      0.56832,
      0.56996,
      0.57096,
      0.57158,
      0.57257,
      0.57343,
      0.57435,
      0.57508,
      0.57573,
      0.57625,
      0.57687,
      0.57659,
      0.57719,
      0.57748,
      0.57749,
      0.57733,
      0.57754,
      0.57696,
      0.5768,
      0.57651,
      0.57565,
      0.57531,
      0.57433,
      0.57389,
      0.57301,
      0.57305,
      0.57211,
      0.57243,
      0.57228,
      0.57295,
      0.57304,
      0.57515,
      0.57652,
      0.57783,
      0.57944,
      0.58102,
      0.58239,
      0.58362,
      0.58493,
      0.58588,
      0.58687,
      0.58785,
      0.5888,
      0.58942,
      0.59037,
      0.59121,
      0.59172,
      0.59265,
      0.59299,
      0.59354,
      0.59414,
      0.59437,
      0.59524,
      0.59533,
      0.59598,
      0.5962,
      0.59629,
      0.5968,
      0.59702,
      0.59716,
      0.59724,
      0.5978,
      0.59743,
      0.59783,
      0.59818,
      0.5981,
      0.59868,
      0.59821,
      0.59866,
      0.59878,
      0.59867,
      0.59905,
      0.5991,
      0.59873,
      0.59881,
      0.59936,
      0.599
    ],
    "error": [
      0.0072,
      0.00703,
      0.00673,
      0.00674,
      0.00682,
      0.00677,
      0.00681,
      0.00673,
      0.00633,
      0.00649,
      0.00627,
      0.00625,
      0.00631,
      0.00658,
      0.00675,
      0.00675,
      0.00704,
      0.00688,
      0.0069,
      0.00696,
      0.00696,
      0.00679,
      0.00681,
      0.00659,
      0.00694,
      0.00669,
      0.0066,
      0.00656,
      0.0067,
      0.00634,
      0.00676,
      0.00617,
      0.00637,
      0.00605,
      0.00613,
      0.00609,
      0.00588,
      0.00589,
      0.00605,
      0.00564,
      0.00555,
      0.00592,
      0.00573,
      0.00566,
      0.00594,
      0.00572,
      0.00578,
      0.00574,
      0.00601,
      0.00592,
      0.00576,
      0.00575,
      0.00586,
      0.00623,
      0.00592,
      0.00594,
      0.00602,
      0.00579,
      0.00561,
      0.00589,
      0.00574,
      0.00588,
      0.00584,
      0.00605,
      0.00626,
      0.00628,
      0.00662,
      0.00638,
      0.0066,
      0.00648,
      0.00664,
      0.00647,
      0.00673,
      0.00652,
      0.0062,
      0.00658,
      0.00611,
      0.00602,
      0.00638,
      0.00608,
      0.00604,
      0.00621,
      0.00606,
      0.00573,
      0.00554,
      0.00581,
      0.00582,
      0.00581,
      0.0059,
      0.00622,
      0.00595,
      0.00616,
      0.00602,
      0.00638,
      0.00649,
      0.00659,
      0.00652,
      0.0066,
      0.00602,
      0.0064,
      0.0057,
      0.00598,
      0.0056,
      0.00542,
      0.0057,
      0.00574,
      0.00546,
      0.00558,
      0.0058,
      0.00595,
      0.00621,
      0.00676,
      0.00634,
      0.00655,
      0.00623,
      0.00642,
      0.00588,
      0.00622,
      0.00591,
      0.00591,
      0.00545,
      0.00579,
      0.00586,
      0.00574,
      0.00572,
      0.00618,
      0.00624,
      0.00672,
      0.00673,
      0.00684,
      0.00695,
      0.00718,
      0.00731,
      0.0068,
      0.00682,
      0.00661,
      0.00669,
      0.00645,
      0.00637,
      0.00614,
      0.00622,
      0.00648,
      0.00647,
      0.00609,
      0.00604,
      0.00605,
      0.00613,
      0.0064,
      0.00647,
      0.00656,
      0.00654,
      0.00643,
      0.00712,
      0.00712,
      0.00672,
      0.00681,
      0.00719,
      0.0067,
      0.0069,
      0.00664,
      0.00626,
      0.00616,
      0.00624,
      0.00634,
      0.00614,
      0.00609,
      0.00619,
      0.00636,
      0.00666,
      0.00647,
      0.00629,
      0.00641,
      0.00637,
      0.00672,
      0.00682,
      0.00721,
      0.00737,
      0.00759,
      0.00703,
      0.00737,
      0.00697,
      0.00729,
      0.00743,
      0.00719,
      0.00704,
      0.00679,
      0.0064,
      0.00631,
      0.00609,
      0.0068,
      0.00686,
      0.0062,
      0.00604,
      0.00576,
      0.00588,
      0.00602,
      0.00634,
      0.00624,
      0.00595,
      0.00626
    ]
  },
  "grain_size": {
    "min": 0,
    "max": 45,
    "unit": "micrometer"
  },
  "abundances": [],
  "description": "Spectrum downloaded from RELAB Spectral Database",
  "version": "0.0.1"
}