{
  "spectrum": {
    "wavelength": [
      400.0,
      401.0,
      402.0,
      403.0,
      404.0,
      405.0,
      406.0,
      407.0,
      408.0,
      409.0,
      410.0,
      411.0,
      412.0,
      413.0,
      414.0,
      415.0,
      416.0,
      417.0,
      418.0,
      419.0,
      420.0,
      421.0,
      422.0,
      423.0,
      424.0,
      425.0,
      426.0,
      427.0,
      428.0,
      429.0,
      430.0,
      431.0,
      432.0,
      433.0,
      434.0,
      435.0,
      436.0,
      437.0,
      438.0,
      439.0,
      440.0,
      441.0,
      442.0,
      443.0,
      444.0,
      445.0,
      446.0,
      447.0,
      448.0,
      449.0,
      450.0,
      451.0,
      452.0,
      453.0,
      454.0,
      455.0,
      456.0,
      457.0,
      458.0,
      459.0,
      460.0,
      461.0,
      462.0,
      463.0,
      464.0,
      465.0,
      466.0,
      467.0,
      468.0,
      469.0,
      470.0,
      471.0,
      472.0,
      473.0,
      474.0,
      475.0,
      476.0,
      477.0,
      478.0,
      479.0,
      480.0,
      481.0,
      482.0,
      483.0,
      484.0,
      485.0,
      486.0,
      487.0,
      488.0,
      489.0,
      490.0,
      491.0,
      492.0,
      493.0,
      494.0,
      495.0,
      496.0,
      497.0,
      498.0,
      499.0,
      500.0,
      501.0,
      502.0,
      503.0,
      504.0,
      505.0,
      506.0,
      507.0,
      508.0,
      509.0,
      510.0,
      511.0,
      512.0,
      513.0,
      514.0,
      515.0,
      516.0,
      517.0,
      518.0,
      519.0,
      520.0,
      521.0,
      522.0,
      523.0,
      524.0,
      525.0,
      526.0,
      527.0,
      528.0,
      529.0,
      530.0,
      531.0,
      532.0,
      533.0,
      534.0,
      535.0,
      536.0,
      537.0,
      538.0,
      539.0,
      540.0,
      541.0,
      542.0,
      543.0,
      544.0,
      545.0,
      546.0,
      547.0,
      548.0,
      549.0,
      550.0,
      551.0,
      552.0,
      553.0,
      554.0,
      555.0,
      556.0,
      557.0,
      558.0,
      559.0,
      560.0,
      561.0,
      562.0,
      563.0,
      564.0,
      565.0,
      566.0,
      567.0,
      568.0,
      569.0,
      570.0,
      571.0,
      572.0,
      573.0,
      574.0,
      575.0,
      576.0,
      577.0,
      578.0,
      579.0,
      580.0,
      581.0,
      582.0,
      583.0,
      584.0,
      585.0,
      586.0,
      587.0,
      588.0,
      589.0,
      590.0,
      591.0,
      592.0,
      593.0,
      594.0,
      595.0,
      596.0,
      597.0,
      598.0,
      599.0
    ],
    "reflectance": [
      0.12628,
      0.12863,
      0.12975,
      0.13181,
      0.1336,
      0.13521,
      0.1369,
      0.13839,
      0.13997,
      0.14137,
      0.14273,
      0.14424,
      0.14558,
      0.14671,
      0.14777,
      0.14896,
      0.14992,
      0.15091,
      0.15182,
      0.1527,
      0.15373,
      0.15441,
      0.15499,
      0.15579,
      0.15648,
      0.15692,
      0.15729,
      0.15767,
      0.15796,
      0.15831,
      0.15847,
      0.15859,
      0.15877,
      0.15859,
      0.1585,
      0.15835,
      0.15802,
      0.15828,
      0.158,
      0.15769,
      0.15735,
      0.15734,
      0.15698,
      0.15655,
      0.15646,
      0.15605,
      0.15552,
      0.15526,
      0.15502,
      0.15458,
      0.15436,
      0.15421,
      0.15411,
      0.15399,
      0.15385,
      0.15404,
      0.15438,
      0.15458,
      0.15487,
      0.15534,
      0.15606,
      0.15657,
      0.15734,
      0.15809,
      0.1588,
      0.15949,
      0.16011,
      0.16105,
      0.16196,
      0.16272,
      0.16361,
      0.16445,
      0.16526,
      0.16605,
      0.16676,
      0.16748,
      0.16834,
      0.16896,
      0.16956,
      0.17033,
      0.17088,
      0.17154,
      0.17203,
      0.17263,
      0.17303,
      0.17377,
      0.17409,
      0.17456,
      0.17517,
      0.17585,
      0.17662,
      0.17747,
      0.17845,
      0.17946,
      0.18048,
      0.18147,
      0.18237,
      0.18335,
      0.18442,
      0.18544,
      0.18644,
      0.18732,
      0.1885,
      0.18928,
      0.19053,
      0.19134,
      0.19206,
      0.19266,
      0.19299,
      0.19327,
      0.19403,
      0.19565,
      0.19763,
      0.19961,
      0.20182,
      0.20366,
      0.20538,
      0.20716,
      0.20908,
      0.21067,
      0.21241,
      0.21419,
      0.21578,
      0.21723,
      0.21893,
      0.22057,
      0.22203,
      0.22367,
      0.22488,
      0.22647,
      0.22798,
      0.2294,
      0.23067,
      0.23206,
      0.23343,
      0.23455,
      0.23572,
      0.23686,
      0.23819,
      0.23916,
      0.24018,
      0.24129,
      0.24198,
      0.24303,
      0.24388,
      0.24434,
      0.24512,
      0.24567,
      0.24649,
      0.24706,
      0.24767,
      0.24825,
      0.24886,
      0.24971,
      0.25069,
      0.25151,
      0.25226,
      0.25354,
      0.25403,
      0.25504,
      0.25581,
      0.25659,
      0.25743,
      0.25802,
      0.25878,
      0.25973,
      0.25996,
      0.26085,
      0.26123,
      0.26189,
      0.26256,
      0.26308,
      0.26358,
      0.26404,
      0.26425,
      0.26481,
      0.26537,
      0.26587,
      0.26637,
      0.2664,
      0.26685,
      0.26714,
      0.26772,
      0.26783,
      0.26826,
      0.26847,
      0.26874,
      0.26894,
      0.26922,
      0.26966,
      0.26974,
      0.27004,
      0.2703,
      0.27048,
      0.2706,
      0.27077,
      0.27094,
      0.2712,
      0.27116,
      0.27125
    ],
    "error": [
      0.0035,
      0.0033,
      0.00318,
      0.00303,
      0.00289,
      0.0027,
      0.0027,
      0.00259,
      0.00245,
      0.00244,
      0.00236,
      0.00217,
      0.00213,
      0.00209,
      0.00197,
      0.00196,
      0.0019,
      0.00183,
      0.0018,
      0.00172,
      0.00177,
      0.00169,
      0.00165,
      0.00158,
      0.00153,
      0.00158,
      0.00157,
      0.00147,
      0.00152,
      0.00141,
      0.00148,
      0.00146,
      0.00146,
      0.00141,
      0.00134,
      0.00133,
      0.00132,
      0.00131,
      0.00128,
      0.00126,
      0.00128,
      0.0013,
      0.00124,
      0.00121,
      0.00118,
      0.00119,
      0.00118,
      0.00121,
      0.00117,
      0.00116,
      0.00116,
      0.00119,
      0.00113,
      0.00112,
      0.00113,
      0.00111,
      0.00108,
      0.00107,
      0.00111,
      0.00106,
      0.00111,
      0.00108,
      0.00116,
      0.00114,
      0.00113,
      0.00109,
      0.00107,
      0.00107,
      0.00112,
      0.00111,
      0.00104,
      0.00106,
      0.00108,
      0.00106,
      0.00108,
      0.00108,
      0.00109,
      0.00111,
      0.00111,
      0.00106,
      0.00106,
      0.00108,
      0.00106,
      0.00104,
      0.00107,
      0.00111,
      0.00112,
      0.00108,
      0.00112,
      0.0011,
      0.00115,
      0.00109,
      0.00106,
      0.00109,
      0.00119,
      0.00111,
      0.00112,
      0.00117,
      0.00111,
      0.00119,
      0.00113,
      0.00113,
      0.0011,
      0.00113,
      0.0011,
      0.00118,
      0.00117,
      0.00112,
      0.00111,
      0.00114,
      0.0012,
      0.00116,
      0.00124,
      0.00114,
      0.00119,
      0.00123,
      0.00118,
      0.00123,
      0.00122,
      0.00129,
      0.00127,
      0.00133,
      0.00123,
      0.00129,
      0.00136,
      0.00131,
      0.00131,
      0.00128,
      0.0013,
      0.00125,
      0.00129,
      0.00127,
      0.00133,
      0.00135,
      0.00136,
      0.00134,
      0.00129,
      0.00123,
      0.00131,
      0.00132,
      0.0013,
      0.00142,
      0.00132,
      0.00138,
      0.00138,
      0.00134,
      0.00135,
      0.00139,
      0.00137,
      0.00135,
      0.0013,
      0.00139,
      0.00146,
      0.00144,
      0.00135,
      0.00149,
      0.00143,
      0.00153,
      0.00148,
      0.00147,
      0.0014,
      0.00143,
      0.00147,
      0.00152,
      0.00142,
      0.00149,
      0.00138,
      0.00151,
      0.00154,
      0.00143,
      0.00152,
      0.00152,
      0.00153,
      0.00137,
      0.00156,
      0.00159,
      0.0015,
      0.00151,
      0.00148,
      0.00145,
      0.00166,
      0.00151,
      0.00153,
      0.00138,
      0.00156,
      0.00142,
      0.00143,
      0.00151,
      0.00149,
      0.00145,
      0.00152,
      0.00153,
      0.00157,
      0.00149,
      0.00152,
      0.00145,
      0.00147,
      0.00156,
      0.00147,
      0.00157
    ]
  },
  "grain_size": {
    "min": 0,
    "max": 100,
    "unit": "micrometer"
  },
  "abundances": [],
  "description": "Spectrum downloaded from RELAB Spectral Database",
  "version": "0.0.1"
}