{
  "spectrum": {
    "wavelength": [
      400.0,
      401.0,
      402.0,
      403.0,
      404.0,
      405.0,
      406.0,
      407.0,
      408.0,
      409.0,
      410.0,
      411.0,
      412.0,
      413.0,
      414.0,
      415.0,
      416.0,
      417.0,
      418.0,
      419.0,
      420.0,
      421.0,
      422.0,
      423.0,
      424.0,
      425.0,
      426.0,
      427.0,
      428.0,
      429.0,
      430.0,
      431.0,
      432.0,
      433.0,
      434.0,
      435.0,
      436.0,
      437.0,
      438.0,
      439.0,
      440.0,
      441.0,
      442.0,
      443.0,
      444.0,
      445.0,
      446.0,
      447.0,
      448.0,
      449.0,
      450.0,
      451.0,
      452.0,
      453.0,
      454.0,
      455.0,
      456.0,
      457.0,
      458.0,
      459.0,
      460.0,
      461.0,
      462.0,
      463.0,
      464.0,
      465.0,
      466.0,
      467.0,
      468.0,
      469.0,
      470.0,
      471.0,
      472.0,
      473.0,
      474.0,
      475.0,
      476.0,
      477.0,
      478.0,
      479.0,
      480.0,
      481.0,
      482.0,
      483.0,
      484.0,
      485.0,
      486.0,
      487.0,
      488.0,
      489.0,
      490.0,
      491.0,
      492.0,
      493.0,
      494.0,
      495.0,
      496.0,
      497.0,
      498.0,
      499.0,
      500.0,
      501.0,
      502.0,
      503.0,
      504.0,
      505.0,
      506.0,
      507.0,
      508.0,
      509.0,
      510.0,
      511.0,
      512.0,
      513.0,
      514.0,
      515.0,
      516.0,
      517.0,
      518.0,
      519.0,
      520.0,
      521.0,
      522.0,
      523.0,
      524.0,
      525.0,
      526.0,
      527.0,
      528.0,
      529.0,
      530.0,
      531.0,
      532.0,
      533.0,
      534.0,
      535.0,
      536.0,
      537.0,
      538.0,
      539.0,
      540.0,
      541.0,
      542.0,
      543.0,
      544.0,
      545.0,
      546.0,
      547.0,
      548.0,
      549.0,
      550.0,
      551.0,
      552.0,
      553.0,
      554.0,
      555.0,
      556.0,
      557.0,
      558.0,
      559.0,
      560.0,
      561.0,
      562.0,
      563.0,
      564.0,
      565.0,
      566.0,
      567.0,
      568.0,
      569.0,
      570.0,
      571.0,
      572.0,
      573.0,
      574.0,
      575.0,
      576.0,
      577.0,
      578.0,
      579.0,
      580.0,
      581.0,
      582.0,
      583.0,
      584.0,
      585.0,
      586.0,
      587.0,
      588.0,
      589.0,
      590.0,
      591.0,
      592.0,
      593.0,
      594.0,
      595.0,
      596.0,
      597.0,
      598.0,
      599.0
    ],
    "reflectance": [
      0.23828,
      0.24149,
      0.2436,
      0.24667,
      0.2493,
      0.25166,
      0.254,
      0.25606,
      0.25831,
      0.2605,
      0.26224,
      0.2641,
      0.26592,
      0.26794,
      0.26909,
      0.27121,
      0.27254,
      0.27393,
      0.27583,
      0.27665,
      0.27863,
      0.28013,
      0.28115,
      0.28282,
      0.28384,
      0.28479,
      0.28564,
      0.2868,
      0.2877,
      0.28851,
      0.28898,
      0.28944,
      0.28999,
      0.29008,
      0.29035,
      0.29108,
      0.29091,
      0.29135,
      0.2914,
      0.29146,
      0.29173,
      0.29192,
      0.29195,
      0.29217,
      0.29205,
      0.29208,
      0.29241,
      0.29287,
      0.29278,
      0.29314,
      0.29373,
      0.29403,
      0.29404,
      0.2947,
      0.29511,
      0.29602,
      0.29676,
      0.29742,
      0.2986,
      0.30004,
      0.30137,
      0.30225,
      0.30372,
      0.30488,
      0.30634,
      0.30779,
      0.30907,
      0.31035,
      0.31189,
      0.31313,
      0.31448,
      0.31591,
      0.31742,
      0.31863,
      0.31984,
      0.32106,
      0.32195,
      0.32313,
      0.32387,
      0.32506,
      0.32547,
      0.32631,
      0.32731,
      0.32806,
      0.32839,
      0.32908,
      0.32968,
      0.33003,
      0.33056,
      0.33082,
      0.33161,
      0.33275,
      0.33416,
      0.33568,
      0.33741,
      0.33864,
      0.34002,
      0.34148,
      0.34285,
      0.34417,
      0.34554,
      0.3464,
      0.34755,
      0.34851,
      0.34969,
      0.34992,
      0.35026,
      0.34984,
      0.34871,
      0.34864,
      0.34963,
      0.35191,
      0.35465,
      0.3574,
      0.36033,
      0.36335,
      0.36605,
      0.36795,
      0.37022,
      0.372,
      0.37438,
      0.37605,
      0.37771,
      0.37961,
      0.38094,
      0.38307,
      0.38443,
      0.38609,
      0.38771,
      0.38907,
      0.39068,
      0.39164,
      0.39357,
      0.39435,
      0.39554,
      0.39673,
      0.39751,
      0.39843,
      0.40051,
      0.40143,
      0.40238,
      0.40362,
      0.40447,
      0.4044,
      0.40561,
      0.4062,
      0.40634,
      0.40687,
      0.4077,
      0.40799,
      0.40835,
      0.40832,
      0.40936,
      0.41014,
      0.41072,
      0.4114,
      0.41222,
      0.41338,
      0.41421,
      0.41482,
      0.41524,
      0.41624,
      0.41629,
      0.41682,
      0.41709,
      0.41805,
      0.41841,
      0.41823,
      0.41891,
      0.41934,
      0.41924,
      0.41904,
      0.42003,
      0.41964,
      0.41927,
      0.41984,
      0.41945,
      0.42044,
      0.42047,
      0.41939,
      0.42012,
      0.42029,
      0.42074,
      0.41995,
      0.42086,
      0.42112,
      0.42084,
      0.421,
      0.42106,
      0.42093,
      0.41987,
      0.42035,
      0.42017,
      0.42007,
      0.41946,
      0.41974,
      0.41944,
      0.41937,
      0.41892,
      0.41863
    ],
    "error": [
      0.00665,
      0.00606,
      0.00653,
      0.0056,
      0.00654,
      0.00545,
      0.00527,
      0.00528,
      0.0058,
      0.0052,
      0.00531,
      0.00545,
      0.00507,
      0.00526,
      0.00583,
      0.00544,
      0.00474,
      0.00537,
      0.00611,
      0.00561,
      0.00576,
      0.00556,
      0.00532,
      0.00552,
      0.0051,
      0.00525,
      0.0047,
      0.00406,
      0.00397,
      0.00395,
      0.00341,
      0.00304,
      0.00315,
      0.00352,
      0.00374,
      0.00415,
      0.00435,
      0.00447,
      0.00405,
      0.00479,
      0.00457,
      0.00434,
      0.00444,
      0.00401,
      0.00444,
      0.00473,
      0.00484,
      0.00489,
      0.00494,
      0.00474,
      0.0046,
      0.00501,
      0.00488,
      0.00549,
      0.00516,
      0.00518,
      0.005,
      0.00561,
      0.00532,
      0.00526,
      0.00546,
      0.00588,
      0.00571,
      0.00619,
      0.00561,
      0.00561,
      0.00572,
      0.00578,
      0.00564,
      0.00556,
      0.00543,
      0.00525,
      0.00587,
      0.00491,
      0.00565,
      0.00578,
      0.00538,
      0.00486,
      0.00539,
      0.00491,
      0.00597,
      0.00566,
      0.00621,
      0.00579,
      0.00652,
      0.00602,
      0.00674,
      0.00661,
      0.00672,
      0.00646,
      0.00732,
      0.00745,
      0.00753,
      0.007,
      0.00747,
      0.00744,
      0.0075,
      0.00789,
      0.0079,
      0.00802,
      0.00783,
      0.0076,
      0.00753,
      0.00799,
      0.00804,
      0.00841,
      0.00848,
      0.00915,
      0.00856,
      0.00853,
      0.00948,
      0.00924,
      0.00996,
      0.0094,
      0.00994,
      0.00953,
      0.00964,
      0.00975,
      0.00951,
      0.01002,
      0.00959,
      0.00923,
      0.01037,
      0.00952,
      0.01039,
      0.01112,
      0.01036,
      0.00993,
      0.01079,
      0.00987,
      0.0103,
      0.01151,
      0.01053,
      0.0109,
      0.01089,
      0.0109,
      0.01075,
      0.01138,
      0.01047,
      0.01045,
      0.01124,
      0.01043,
      0.01032,
      0.01146,
      0.00968,
      0.00982,
      0.00963,
      0.01044,
      0.00913,
      0.0079,
      0.00954,
      0.00939,
      0.01012,
      0.01002,
      0.01039,
      0.01107,
      0.01068,
      0.0108,
      0.01034,
      0.01118,
      0.01252,
      0.01171,
      0.01213,
      0.01226,
      0.01303,
      0.01221,
      0.01248,
      0.01268,
      0.01379,
      0.01301,
      0.01308,
      0.01415,
      0.01306,
      0.01316,
      0.01398,
      0.01414,
      0.01418,
      0.01399,
      0.013,
      0.01447,
      0.01454,
      0.01394,
      0.01325,
      0.0141,
      0.0126,
      0.01204,
      0.01227,
      0.0129,
      0.01231,
      0.01175,
      0.01325,
      0.0128,
      0.01201,
      0.01183,
      0.01317,
      0.01261,
      0.01201,
      0.0119,
      0.01239,
      0.01266
    ]
  },
  "grain_size": {
    "min": 0,
    "max": 100,
    "unit": "micrometer"
  },
  "abundances": [],
  "description": "Spectrum downloaded from RELAB Spectral Database",
  "version": "0.0.1"
}