{
  "spectrum": {
    "wavelength": [
      400.0,
      401.0,
      402.0,
      403.0,
      404.0,
      405.0,
      406.0,
      407.0,
      408.0,
      409.0,
      410.0,
      411.0,
      412.0,
      413.0,
      414.0,
      415.0,
      416.0,
      417.0,
      418.0,
      419.0,
      420.0,
      421.0,
      422.0,
      423.0,
      424.0,
      425.0,
      426.0,
      427.0,
      428.0,
      429.0,
      430.0,
      431.0,
      432.0,
      433.0,
      434.0,
      435.0,
      436.0,
      437.0,
      438.0,
      439.0,
      440.0,
      441.0,
      442.0,
      443.0,
      444.0,
      445.0,
      446.0,
      447.0,
      448.0,
      449.0,
      450.0,
      451.0,
      452.0,
      453.0,
      454.0,
      455.0,
      456.0,
      457.0,
      458.0,
      459.0,
      460.0,
      461.0,
      462.0,
      463.0,
      464.0,
      465.0,
      466.0,
      467.0,
      468.0,
      469.0,
      470.0,
      471.0,
      472.0,
      473.0,
      474.0,
      475.0,
      476.0,
      477.0,
      478.0,
      479.0,
      480.0,
      481.0,
      482.0,
      483.0,
      484.0,
      485.0,
      486.0,
      487.0,
      488.0,
      489.0,
      490.0,
      491.0,
      492.0,
      493.0,
      494.0,
      495.0,
      496.0,
      497.0,
      498.0,
      499.0,
      500.0,
      501.0,
      502.0,
      503.0,
      504.0,
      505.0,
      506.0,
      507.0,
      508.0,
      509.0,
      510.0,
      511.0,
      512.0,
      513.0,
      514.0,
      515.0,
      516.0,
      517.0,
      518.0,
      519.0,
      520.0,
      521.0,
      522.0,
      523.0,
      524.0,
      525.0,
      526.0,
      527.0,
      528.0,
      529.0,
      530.0,
      531.0,
      532.0,
      533.0,
      534.0,
      535.0,
      536.0,
      537.0,
      538.0,
      539.0,
      540.0,
      541.0,
      542.0,
      543.0,
      544.0,
      545.0,
      546.0,
      547.0,
      548.0,
      549.0,
      550.0,
      551.0,
      552.0,
      553.0,
      554.0,
      555.0,
      556.0,
      557.0,
      558.0,
      559.0,
      560.0,
      561.0,
      562.0,
      563.0,
      564.0,
      565.0,
      566.0,
      567.0,
      568.0,
      569.0,
      570.0,
      571.0,
      572.0,
      573.0,
      574.0,
      575.0,
      576.0,
      577.0,
      578.0,
      579.0,
      580.0,
      581.0,
      582.0,
      583.0,
      584.0,
      585.0,
      586.0,
      587.0,
      588.0,
      589.0,
      590.0,
      591.0,
      592.0,
      593.0,
      594.0,
      595.0,
      596.0,
      597.0,
      598.0,
      599.0
    ],
    "reflectance": [
      0.08158,
      0.08349,
      0.08511,
      0.0867,
      0.08811,
      0.08926,
      0.09026,
      0.09145,
      0.0925,
      0.09367,
      0.09455,
      0.09554,
      0.09701,
      0.09815,
      0.09931,
      0.1007,
      0.10189,
      0.10295,
      0.10414,
      0.10512,
      0.10606,
      0.10693,
      0.10789,
      0.10838,
      0.10886,
      0.10904,
      0.10922,
      0.10926,
      0.10918,
      0.10929,
      0.10922,
      0.10945,
      0.10983,
      0.11043,
      0.11099,
      0.11146,
      0.1123,
      0.11272,
      0.11321,
      0.11353,
      0.11422,
      0.11464,
      0.11473,
      0.11502,
      0.11548,
      0.11552,
      0.11591,
      0.11604,
      0.11612,
      0.11648,
      0.11678,
      0.11719,
      0.11738,
      0.11765,
      0.11796,
      0.11857,
      0.11897,
      0.11965,
      0.12046,
      0.12116,
      0.12173,
      0.12243,
      0.1228,
      0.12327,
      0.12339,
      0.12343,
      0.12329,
      0.12298,
      0.12274,
      0.12248,
      0.12242,
      0.12257,
      0.12279,
      0.12301,
      0.1236,
      0.12384,
      0.12383,
      0.12374,
      0.12355,
      0.12347,
      0.1237,
      0.12406,
      0.12463,
      0.12535,
      0.12628,
      0.12682,
      0.12722,
      0.12778,
      0.12869,
      0.13014,
      0.13158,
      0.13343,
      0.13522,
      0.13713,
      0.1388,
      0.14031,
      0.14167,
      0.14274,
      0.1436,
      0.14426,
      0.14415,
      0.14399,
      0.14318,
      0.14226,
      0.14091,
      0.13874,
      0.13475,
      0.12945,
      0.12626,
      0.12885,
      0.13441,
      0.13901,
      0.14283,
      0.1468,
      0.15091,
      0.15473,
      0.15823,
      0.16115,
      0.16382,
      0.16624,
      0.16804,
      0.16972,
      0.17146,
      0.17299,
      0.1744,
      0.17554,
      0.17695,
      0.17807,
      0.17931,
      0.18043,
      0.18142,
      0.1826,
      0.18372,
      0.18465,
      0.18569,
      0.18641,
      0.18702,
      0.18757,
      0.18784,
      0.18834,
      0.18841,
      0.18833,
      0.18781,
      0.18772,
      0.18683,
      0.18651,
      0.18614,
      0.18574,
      0.18579,
      0.1859,
      0.18675,
      0.1877,
      0.18847,
      0.19007,
      0.19159,
      0.19348,
      0.19511,
      0.19676,
      0.19875,
      0.20055,
      0.20259,
      0.20374,
      0.20517,
      0.20677,
      0.20819,
      0.20934,
      0.21061,
      0.21194,
      0.21302,
      0.21391,
      0.21503,
      0.21587,
      0.21711,
      0.21794,
      0.2191,
      0.21981,
      0.22077,
      0.22126,
      0.22255,
      0.22324,
      0.22421,
      0.22471,
      0.22557,
      0.22662,
      0.22738,
      0.22822,
      0.22845,
      0.22959,
      0.22995,
      0.23095,
      0.23133,
      0.23206,
      0.23251,
      0.23333,
      0.23364,
      0.23441,
      0.23466,
      0.23538,
      0.23572,
      0.2364
    ],
    "error": [
      0.00277,
      0.00259,
      0.00251,
      0.0024,
      0.00228,
      0.00228,
      0.00217,
      0.0021,
      0.00203,
      0.00202,
      0.00194,
      0.00184,
      0.0018,
      0.00178,
      0.00174,
      0.00178,
      0.00164,
      0.0017,
      0.00159,
      0.00149,
      0.00153,
      0.00151,
      0.00148,
      0.00148,
      0.00142,
      0.00142,
      0.00143,
      0.00145,
      0.00151,
      0.00138,
      0.0014,
      0.00138,
      0.00141,
      0.00137,
      0.00138,
      0.00134,
      0.00138,
      0.00132,
      0.00135,
      0.00131,
      0.00136,
      0.00131,
      0.00124,
      0.00125,
      0.00129,
      0.00127,
      0.00133,
      0.00135,
      0.00128,
      0.00135,
      0.00124,
      0.00135,
      0.00127,
      0.00126,
      0.00127,
      0.00126,
      0.0012,
      0.00119,
      0.00119,
      0.0012,
      0.0012,
      0.00119,
      0.00117,
      0.00125,
      0.00123,
      0.00121,
      0.00118,
      0.00118,
      0.00108,
      0.00112,
      0.00109,
      0.0011,
      0.00112,
      0.00103,
      0.00103,
      0.00108,
      0.00107,
      0.00107,
      0.00104,
      0.00102,
      0.00104,
      0.00106,
      0.00094,
      0.00097,
      0.001,
      0.00101,
      0.00101,
      0.001,
      0.00094,
      0.00101,
      0.00098,
      0.00098,
      0.00099,
      0.00101,
      0.00099,
      0.00103,
      0.00099,
      0.00101,
      0.00098,
      0.00101,
      0.00102,
      0.00104,
      0.00099,
      0.00102,
      0.00102,
      0.00103,
      0.00104,
      0.001,
      0.00097,
      0.00103,
      0.00109,
      0.00121,
      0.00116,
      0.00128,
      0.0013,
      0.00133,
      0.00131,
      0.00129,
      0.00145,
      0.0014,
      0.00133,
      0.00123,
      0.00133,
      0.0015,
      0.00135,
      0.00128,
      0.00129,
      0.00129,
      0.00125,
      0.0012,
      0.00127,
      0.00128,
      0.00131,
      0.00121,
      0.00141,
      0.00134,
      0.00136,
      0.00147,
      0.00135,
      0.00145,
      0.0014,
      0.00142,
      0.00144,
      0.00144,
      0.00132,
      0.0013,
      0.00141,
      0.00144,
      0.00154,
      0.00157,
      0.0016,
      0.00162,
      0.00154,
      0.00148,
      0.00161,
      0.00159,
      0.00165,
      0.00171,
      0.00171,
      0.00157,
      0.00175,
      0.00162,
      0.00158,
      0.00158,
      0.00165,
      0.00179,
      0.0017,
      0.00175,
      0.00172,
      0.00178,
      0.00174,
      0.00186,
      0.00184,
      0.00183,
      0.00187,
      0.00198,
      0.00198,
      0.002,
      0.00203,
      0.0021,
      0.00212,
      0.00212,
      0.00223,
      0.00198,
      0.0022,
      0.00199,
      0.00209,
      0.00191,
      0.00222,
      0.00203,
      0.00193,
      0.002,
      0.00212,
      0.00205,
      0.00198,
      0.00203,
      0.00204,
      0.0022,
      0.00216,
      0.00219
    ]
  },
  "grain_size": {
    "min": 0,
    "max": 45,
    "unit": "micrometer"
  },
  "abundances": [],
  "description": "Spectrum downloaded from RELAB Spectral Database",
  "version": "0.0.1"
}