{
  "spectrum": {
    "wavelength": [
      400.0,
      401.0,
      402.0,
      403.0,
      404.0,
      405.0,
      406.0,
      407.0,
      408.0,
      409.0,
      410.0,
      411.0,
      412.0,
      413.0,
      414.0,
      415.0,
      416.0,
      417.0,
      418.0,
      419.0,
      420.0,
      421.0,
      422.0,
      423.0,
      424.0,
      425.0,
      426.0,
      427.0,
      428.0,
      429.0,
      430.0,
      431.0,
      432.0,
      433.0,
      434.0,
      435.0,
      436.0,
      437.0,
      438.0,
      439.0,
      440.0,
      441.0,
      442.0,
      443.0,
      444.0,
      445.0,
      446.0,
      447.0,
      448.0,
      449.0,
      450.0,
      451.0,
      452.0,
      453.0,
      454.0,
      455.0,
      456.0,
      457.0,
      458.0,
      459.0,
      460.0,
      461.0,
      462.0,
      463.0,
      464.0,
      465.0,
      466.0,
      467.0,
      468.0,
      469.0,
      470.0,
      471.0,
      472.0,
      473.0,
      474.0,
      475.0,
      476.0,
      477.0,
      478.0,
      479.0,
      480.0,
      481.0,
      482.0,
      483.0,
      484.0,
      485.0,
      486.0,
      487.0,
      488.0,
      489.0,
      490.0,
      491.0,
      492.0,
      493.0,
      494.0,
      495.0,
      496.0,
      497.0,
      498.0,
      499.0,
      500.0,
      501.0,
      502.0,
      503.0,
      504.0,
      505.0,
      506.0,
      507.0,
      508.0,
      509.0,
      510.0,
      511.0,
      512.0,
      513.0,
      514.0,
      515.0,
      516.0,
      517.0,
      518.0,
      519.0,
      520.0,
      521.0,
      522.0,
      523.0,
      524.0,
      525.0,
      526.0,
      527.0,
      528.0,
      529.0,
      530.0,
      531.0,
      532.0,
      533.0,
      534.0,
      535.0,
      536.0,
      537.0,
      538.0,
      539.0,
      540.0,
      541.0,
      542.0,
      543.0,
      544.0,
      545.0,
      546.0,
      547.0,
      548.0,
      549.0,
      550.0,
      551.0,
      552.0,
      553.0,
      554.0,
      555.0,
      556.0,
      557.0,
      558.0,
      559.0,
      560.0,
      561.0,
      562.0,
      563.0,
      564.0,
      565.0,
      566.0,
      567.0,
      568.0,
      569.0,
      570.0,
      571.0,
      572.0,
      573.0,
      574.0,
      575.0,
      576.0,
      577.0,
      578.0,
      579.0,
      580.0,
      581.0,
      582.0,
      583.0,
      584.0,
      585.0,
      586.0,
      587.0,
      588.0,
      589.0,
      590.0,
      591.0,
      592.0,
      593.0,
      594.0,
      595.0,
      596.0,
      597.0,
      598.0,
      599.0
    ],
    "reflectance": [
      0.13645,
      0.13869,
      0.13996,
      0.14131,
      0.14255,
      0.14361,
      0.1445,
      0.14581,
      0.1467,
      0.14763,
      0.14838,
      0.14936,
      0.15037,
      0.15085,
      0.15178,
      0.15267,
      0.15304,
      0.15422,
      0.15456,
      0.15538,
      0.15591,
      0.1565,
      0.15718,
      0.15712,
      0.15765,
      0.15769,
      0.15783,
      0.15764,
      0.15795,
      0.15803,
      0.15833,
      0.1587,
      0.15889,
      0.15944,
      0.15945,
      0.16009,
      0.16015,
      0.16055,
      0.16111,
      0.16131,
      0.16139,
      0.16187,
      0.16212,
      0.1624,
      0.1628,
      0.163,
      0.16328,
      0.1635,
      0.16378,
      0.16412,
      0.1643,
      0.1646,
      0.16478,
      0.16515,
      0.16542,
      0.16569,
      0.16601,
      0.16654,
      0.1668,
      0.1674,
      0.16786,
      0.16846,
      0.16884,
      0.16912,
      0.16937,
      0.16963,
      0.17007,
      0.17016,
      0.17028,
      0.17067,
      0.17091,
      0.171,
      0.17154,
      0.17195,
      0.17221,
      0.17268,
      0.17289,
      0.1731,
      0.17322,
      0.17354,
      0.1738,
      0.17412,
      0.17447,
      0.17481,
      0.17519,
      0.17549,
      0.17598,
      0.17639,
      0.17682,
      0.17723,
      0.17802,
      0.17874,
      0.17985,
      0.18026,
      0.18116,
      0.18194,
      0.18254,
      0.18317,
      0.18349,
      0.18393,
      0.18408,
      0.18386,
      0.18364,
      0.18335,
      0.18244,
      0.18044,
      0.17779,
      0.17608,
      0.1759,
      0.17707,
      0.17801,
      0.17888,
      0.18032,
      0.18223,
      0.18461,
      0.1867,
      0.18854,
      0.19063,
      0.19248,
      0.19374,
      0.19508,
      0.19597,
      0.19689,
      0.19771,
      0.19843,
      0.19942,
      0.19986,
      0.20045,
      0.20107,
      0.20151,
      0.20189,
      0.20218,
      0.20286,
      0.20315,
      0.20354,
      0.20384,
      0.20401,
      0.20427,
      0.20431,
      0.20443,
      0.20432,
      0.20427,
      0.20418,
      0.20411,
      0.20406,
      0.20382,
      0.2038,
      0.20339,
      0.20306,
      0.20277,
      0.20277,
      0.20308,
      0.20327,
      0.20366,
      0.2045,
      0.20524,
      0.20623,
      0.207,
      0.20761,
      0.20865,
      0.20936,
      0.21013,
      0.21086,
      0.21137,
      0.21208,
      0.21262,
      0.21306,
      0.21365,
      0.21399,
      0.2145,
      0.21495,
      0.21502,
      0.21551,
      0.21572,
      0.21605,
      0.21641,
      0.21671,
      0.21685,
      0.21707,
      0.21758,
      0.21744,
      0.21786,
      0.21824,
      0.2185,
      0.21889,
      0.21924,
      0.21958,
      0.21989,
      0.2198,
      0.22025,
      0.2204,
      0.22037,
      0.22086,
      0.22063,
      0.22054,
      0.22098,
      0.22112,
      0.22135,
      0.22169,
      0.22192
    ],
    "error": [
      0.00404,
      0.00369,
      0.00355,
      0.00342,
      0.00331,
      0.00312,
      0.003,
      0.00291,
      0.00278,
      0.00261,
      0.00261,
      0.0025,
      0.00241,
      0.00233,
      0.00223,
      0.00209,
      0.00209,
      0.00203,
      0.00193,
      0.00191,
      0.00187,
      0.00183,
      0.0018,
      0.00171,
      0.0017,
      0.00168,
      0.00164,
      0.00161,
      0.00163,
      0.00157,
      0.0015,
      0.00151,
      0.00154,
      0.00147,
      0.00147,
      0.00149,
      0.00143,
      0.00141,
      0.00136,
      0.0014,
      0.00138,
      0.00134,
      0.00136,
      0.00134,
      0.00138,
      0.00129,
      0.00134,
      0.00123,
      0.00128,
      0.00125,
      0.00128,
      0.00131,
      0.0013,
      0.00121,
      0.00123,
      0.00125,
      0.00123,
      0.00126,
      0.00118,
      0.00117,
      0.00117,
      0.00121,
      0.00121,
      0.00113,
      0.00117,
      0.00125,
      0.00121,
      0.00116,
      0.00116,
      0.00119,
      0.00114,
      0.00115,
      0.00122,
      0.00118,
      0.00115,
      0.00118,
      0.00112,
      0.00117,
      0.00115,
      0.00113,
      0.00124,
      0.00114,
      0.00118,
      0.00114,
      0.00114,
      0.00118,
      0.00108,
      0.00114,
      0.00113,
      0.00116,
      0.0012,
      0.00118,
      0.0012,
      0.00112,
      0.00108,
      0.00111,
      0.00113,
      0.00122,
      0.00125,
      0.00125,
      0.00121,
      0.00116,
      0.00117,
      0.00128,
      0.00114,
      0.00112,
      0.0011,
      0.00117,
      0.00129,
      0.00125,
      0.00124,
      0.00114,
      0.00122,
      0.00132,
      0.00135,
      0.00123,
      0.00126,
      0.0013,
      0.00125,
      0.00128,
      0.00125,
      0.00119,
      0.00139,
      0.00122,
      0.00127,
      0.00127,
      0.00137,
      0.00118,
      0.00135,
      0.00126,
      0.00128,
      0.00127,
      0.00123,
      0.00129,
      0.00138,
      0.00122,
      0.00142,
      0.0013,
      0.00139,
      0.00128,
      0.00121,
      0.00138,
      0.00126,
      0.0014,
      0.00128,
      0.00127,
      0.00124,
      0.00122,
      0.00135,
      0.00125,
      0.0014,
      0.00142,
      0.00125,
      0.0015,
      0.00142,
      0.00139,
      0.00158,
      0.00161,
      0.00146,
      0.00163,
      0.00152,
      0.00155,
      0.00172,
      0.00147,
      0.00156,
      0.00154,
      0.00152,
      0.00172,
      0.00155,
      0.00159,
      0.00155,
      0.0015,
      0.00172,
      0.00158,
      0.0015,
      0.00169,
      0.00182,
      0.00176,
      0.00165,
      0.00187,
      0.00178,
      0.00169,
      0.00194,
      0.00182,
      0.00187,
      0.00186,
      0.00166,
      0.00189,
      0.00176,
      0.00173,
      0.00193,
      0.00163,
      0.00179,
      0.00185,
      0.00172,
      0.00169,
      0.00202,
      0.00183,
      0.00192,
      0.00193
    ]
  },
  "grain_size": {
    "min": 0,
    "max": 50,
    "unit": "micrometer"
  },
  "abundances": [],
  "description": "Spectrum downloaded from RELAB Spectral Database",
  "version": "0.0.1"
}