{
  "spectrum": {
    "wavelength": [
      400.0,
      401.0,
      402.0,
      403.0,
      404.0,
      405.0,
      406.0,
      407.0,
      408.0,
      409.0,
      410.0,
      411.0,
      412.0,
      413.0,
      414.0,
      415.0,
      416.0,
      417.0,
      418.0,
      419.0,
      420.0,
      421.0,
      422.0,
      423.0,
      424.0,
      425.0,
      426.0,
      427.0,
      428.0,
      429.0,
      430.0,
      431.0,
      432.0,
      433.0,
      434.0,
      435.0,
      436.0,
      437.0,
      438.0,
      439.0,
      440.0,
      441.0,
      442.0,
      443.0,
      444.0,
      445.0,
      446.0,
      447.0,
      448.0,
      449.0,
      450.0,
      451.0,
      452.0,
      453.0,
      454.0,
      455.0,
      456.0,
      457.0,
      458.0,
      459.0,
      460.0,
      461.0,
      462.0,
      463.0,
      464.0,
      465.0,
      466.0,
      467.0,
      468.0,
      469.0,
      470.0,
      471.0,
      472.0,
      473.0,
      474.0,
      475.0,
      476.0,
      477.0,
      478.0,
      479.0,
      480.0,
      481.0,
      482.0,
      483.0,
      484.0,
      485.0,
      486.0,
      487.0,
      488.0,
      489.0,
      490.0,
      491.0,
      492.0,
      493.0,
      494.0,
      495.0,
      496.0,
      497.0,
      498.0,
      499.0,
      500.0,
      501.0,
      502.0,
      503.0,
      504.0,
      505.0,
      506.0,
      507.0,
      508.0,
      509.0,
      510.0,
      511.0,
      512.0,
      513.0,
      514.0,
      515.0,
      516.0,
      517.0,
      518.0,
      519.0,
      520.0,
      521.0,
      522.0,
      523.0,
      524.0,
      525.0,
      526.0,
      527.0,
      528.0,
      529.0,
      530.0,
      531.0,
      532.0,
      533.0,
      534.0,
      535.0,
      536.0,
      537.0,
      538.0,
      539.0,
      540.0,
      541.0,
      542.0,
      543.0,
      544.0,
      545.0,
      546.0,
      547.0,
      548.0,
      549.0,
      550.0,
      551.0,
      552.0,
      553.0,
      554.0,
      555.0,
      556.0,
      557.0,
      558.0,
      559.0,
      560.0,
      561.0,
      562.0,
      563.0,
      564.0,
      565.0,
      566.0,
      567.0,
      568.0,
      569.0,
      570.0,
      571.0,
      572.0,
      573.0,
      574.0,
      575.0,
      576.0,
      577.0,
      578.0,
      579.0,
      580.0,
      581.0,
      582.0,
      583.0,
      584.0,
      585.0,
      586.0,
      587.0,
      588.0,
      589.0,
      590.0,
      591.0,
      592.0,
      593.0,
      594.0,
      595.0,
      596.0,
      597.0,
      598.0,
      599.0
    ],
    "reflectance": [
      0.07078,
      0.07152,
      0.07235,
      0.07283,
      0.07347,
      0.07407,
      0.0748,
      0.07525,
      0.07578,
      0.07654,
      0.07698,
      0.07754,
      0.0779,
      0.07851,
      0.07892,
      0.07943,
      0.07988,
      0.08028,
      0.08069,
      0.08127,
      0.08159,
      0.08206,
      0.0823,
      0.08272,
      0.08301,
      0.08338,
      0.08339,
      0.08378,
      0.08404,
      0.08423,
      0.08439,
      0.08439,
      0.08433,
      0.08463,
      0.08457,
      0.08453,
      0.08459,
      0.08471,
      0.08471,
      0.08474,
      0.08477,
      0.08465,
      0.08466,
      0.08467,
      0.08471,
      0.08479,
      0.08487,
      0.08481,
      0.08483,
      0.08487,
      0.08483,
      0.08487,
      0.08488,
      0.08501,
      0.0851,
      0.0853,
      0.0855,
      0.08562,
      0.08575,
      0.08607,
      0.08626,
      0.08665,
      0.08686,
      0.08712,
      0.08744,
      0.08767,
      0.08802,
      0.08833,
      0.0886,
      0.08894,
      0.0893,
      0.08953,
      0.08975,
      0.09015,
      0.09041,
      0.09067,
      0.09092,
      0.09128,
      0.09155,
      0.09188,
      0.09213,
      0.09245,
      0.09276,
      0.09297,
      0.09329,
      0.09352,
      0.09384,
      0.09404,
      0.09439,
      0.09478,
      0.09513,
      0.09547,
      0.09591,
      0.0964,
      0.09678,
      0.09724,
      0.09768,
      0.09807,
      0.09852,
      0.09904,
      0.09935,
      0.09986,
      0.10032,
      0.1007,
      0.10106,
      0.10131,
      0.10153,
      0.10164,
      0.10162,
      0.10163,
      0.10157,
      0.10206,
      0.10278,
      0.10373,
      0.10473,
      0.10557,
      0.10651,
      0.10738,
      0.10813,
      0.10903,
      0.10976,
      0.11037,
      0.11099,
      0.11168,
      0.11239,
      0.11295,
      0.11356,
      0.11398,
      0.1146,
      0.11519,
      0.11579,
      0.11613,
      0.11669,
      0.11723,
      0.11761,
      0.1181,
      0.11853,
      0.11887,
      0.1193,
      0.11955,
      0.1199,
      0.12025,
      0.12049,
      0.12072,
      0.12086,
      0.12113,
      0.12133,
      0.12151,
      0.12162,
      0.12171,
      0.12178,
      0.122,
      0.12225,
      0.12253,
      0.12284,
      0.12325,
      0.12354,
      0.12396,
      0.12443,
      0.12474,
      0.12508,
      0.12533,
      0.12571,
      0.12601,
      0.12636,
      0.12655,
      0.12688,
      0.1271,
      0.12726,
      0.12751,
      0.12767,
      0.12798,
      0.12815,
      0.12839,
      0.12846,
      0.12868,
      0.12881,
      0.12895,
      0.12906,
      0.12934,
      0.12941,
      0.12959,
      0.12962,
      0.1298,
      0.12996,
      0.13004,
      0.13006,
      0.13016,
      0.13036,
      0.13024,
      0.13042,
      0.13046,
      0.13053,
      0.13068,
      0.13069,
      0.13069,
      0.13082,
      0.13082,
      0.1308,
      0.13095
    ],
    "error": [
      0.00368,
      0.00349,
      0.00329,
      0.00316,
      0.00295,
      0.00285,
      0.00267,
      0.00259,
      0.00249,
      0.00239,
      0.0023,
      0.0022,
      0.00204,
      0.00202,
      0.00196,
      0.0019,
      0.00182,
      0.00174,
      0.00168,
      0.00165,
      0.00161,
      0.00156,
      0.00151,
      0.00148,
      0.00145,
      0.00142,
      0.00135,
      0.00135,
      0.00135,
      0.0013,
      0.00128,
      0.00124,
      0.00126,
      0.00125,
      0.00126,
      0.00122,
      0.0012,
      0.00113,
      0.00115,
      0.00109,
      0.0011,
      0.00111,
      0.00109,
      0.00109,
      0.00108,
      0.00105,
      0.00106,
      0.001,
      0.00099,
      0.00099,
      0.00101,
      0.00097,
      0.001,
      0.00094,
      0.00094,
      0.00094,
      0.00093,
      0.00095,
      0.00093,
      0.00092,
      0.00094,
      0.00089,
      0.0009,
      0.00088,
      0.00092,
      0.00087,
      0.00087,
      0.0009,
      0.0009,
      0.00089,
      0.00086,
      0.00086,
      0.00086,
      0.00086,
      0.00082,
      0.00083,
      0.00081,
      0.00089,
      0.00088,
      0.00082,
      0.00084,
      0.00083,
      0.00084,
      0.00082,
      0.00084,
      0.00084,
      0.00088,
      0.0008,
      0.00082,
      0.00084,
      0.00081,
      0.00083,
      0.00086,
      0.00084,
      0.00085,
      0.00083,
      0.00084,
      0.00081,
      0.00082,
      0.00082,
      0.0008,
      0.00081,
      0.00082,
      0.00085,
      0.00081,
      0.00084,
      0.00086,
      0.00081,
      0.00081,
      0.00084,
      0.00078,
      0.00083,
      0.00082,
      0.00084,
      0.00083,
      0.00086,
      0.00084,
      0.00086,
      0.00082,
      0.00085,
      0.00087,
      0.00087,
      0.00092,
      0.00088,
      0.00085,
      0.00086,
      0.00088,
      0.00085,
      0.00086,
      0.00091,
      0.00089,
      0.0009,
      0.00086,
      0.00093,
      0.00091,
      0.00085,
      0.00091,
      0.00092,
      0.00089,
      0.00091,
      0.00091,
      0.00089,
      0.00091,
      0.00093,
      0.00092,
      0.00096,
      0.00089,
      0.00092,
      0.00087,
      0.00093,
      0.00091,
      0.00091,
      0.00089,
      0.00089,
      0.00088,
      0.00094,
      0.00091,
      0.00089,
      0.00089,
      0.00088,
      0.00091,
      0.00093,
      0.00092,
      0.00093,
      0.00095,
      0.00095,
      0.00095,
      0.00091,
      0.00095,
      0.00098,
      0.00092,
      0.00094,
      0.00094,
      0.00096,
      0.001,
      0.0009,
      0.00093,
      0.00096,
      0.00097,
      0.00092,
      0.00095,
      0.00094,
      0.00092,
      0.00095,
      0.00096,
      0.00096,
      0.00095,
      0.00096,
      0.00092,
      0.00087,
      0.00096,
      0.00092,
      0.00096,
      0.00091,
      0.00091,
      0.00098,
      0.00099,
      0.00096,
      0.00096,
      0.00093
    ]
  },
  "grain_size": {
    "min": 0,
    "max": 45,
    "unit": "micrometer"
  },
  "abundances": [],
  "description": "Spectrum downloaded from RELAB Spectral Database",
  "version": "0.0.1"
}