{
  "spectrum": {
    "wavelength": [
      400.0,
      401.0,
      402.0,
      403.0,
      404.0,
      405.0,
      406.0,
      407.0,
      408.0,
      409.0,
      410.0,
      411.0,
      412.0,
      413.0,
      414.0,
      415.0,
      416.0,
      417.0,
      418.0,
      419.0,
      420.0,
      421.0,
      422.0,
      423.0,
      424.0,
      425.0,
      426.0,
      427.0,
      428.0,
      429.0,
      430.0,
      431.0,
      432.0,
      433.0,
      434.0,
      435.0,
      436.0,
      437.0,
      438.0,
      439.0,
      440.0,
      441.0,
      442.0,
      443.0,
      444.0,
      445.0,
      446.0,
      447.0,
      448.0,
      449.0,
      450.0,
      451.0,
      452.0,
      453.0,
      454.0,
      455.0,
      456.0,
      457.0,
      458.0,
      459.0,
      460.0,
      461.0,
      462.0,
      463.0,
      464.0,
      465.0,
      466.0,
      467.0,
      468.0,
      469.0,
      470.0,
      471.0,
      472.0,
      473.0,
      474.0,
      475.0,
      476.0,
      477.0,
      478.0,
      479.0,
      480.0,
      481.0,
      482.0,
      483.0,
      484.0,
      485.0,
      486.0,
      487.0,
      488.0,
      489.0,
      490.0,
      491.0,
      492.0,
      493.0,
      494.0,
      495.0,
      496.0,
      497.0,
      498.0,
      499.0,
      500.0,
      501.0,
      502.0,
      503.0,
      504.0,
      505.0,
      506.0,
      507.0,
      508.0,
      509.0,
      510.0,
      511.0,
      512.0,
      513.0,
      514.0,
      515.0,
      516.0,
      517.0,
      518.0,
      519.0,
      520.0,
      521.0,
      522.0,
      523.0,
      524.0,
      525.0,
      526.0,
      527.0,
      528.0,
      529.0,
      530.0,
      531.0,
      532.0,
      533.0,
      534.0,
      535.0,
      536.0,
      537.0,
      538.0,
      539.0,
      540.0,
      541.0,
      542.0,
      543.0,
      544.0,
      545.0,
      546.0,
      547.0,
      548.0,
      549.0,
      550.0,
      551.0,
      552.0,
      553.0,
      554.0,
      555.0,
      556.0,
      557.0,
      558.0,
      559.0,
      560.0,
      561.0,
      562.0,
      563.0,
      564.0,
      565.0,
      566.0,
      567.0,
      568.0,
      569.0,
      570.0,
      571.0,
      572.0,
      573.0,
      574.0,
      575.0,
      576.0,
      577.0,
      578.0,
      579.0,
      580.0,
      581.0,
      582.0,
      583.0,
      584.0,
      585.0,
      586.0,
      587.0,
      588.0,
      589.0,
      590.0,
      591.0,
      592.0,
      593.0,
      594.0,
      595.0,
      596.0,
      597.0,
      598.0,
      599.0
    ],
    "reflectance": [
      0.1538,
      0.15788,
      0.16109,
      0.16348,
      0.16588,
      0.16796,
      0.16995,
      0.17184,
      0.17362,
      0.1757,
      0.17738,
      0.17937,
      0.18137,
      0.18329,
      0.18538,
      0.18729,
      0.18941,
      0.19113,
      0.1929,
      0.19485,
      0.19633,
      0.19758,
      0.19858,
      0.19926,
      0.19969,
      0.19952,
      0.19924,
      0.19886,
      0.19857,
      0.1986,
      0.19871,
      0.19948,
      0.20035,
      0.2016,
      0.20276,
      0.20399,
      0.2049,
      0.20568,
      0.20659,
      0.2071,
      0.20783,
      0.20819,
      0.20866,
      0.209,
      0.20957,
      0.20969,
      0.21012,
      0.21038,
      0.21066,
      0.21093,
      0.21131,
      0.21158,
      0.21205,
      0.21238,
      0.21295,
      0.21358,
      0.21448,
      0.21549,
      0.21664,
      0.21775,
      0.21884,
      0.21991,
      0.22069,
      0.22121,
      0.2212,
      0.22129,
      0.22101,
      0.2207,
      0.2204,
      0.22005,
      0.22014,
      0.2203,
      0.22083,
      0.22148,
      0.22227,
      0.22282,
      0.22264,
      0.22264,
      0.22196,
      0.22177,
      0.22164,
      0.22196,
      0.22279,
      0.22373,
      0.22461,
      0.22527,
      0.22578,
      0.22655,
      0.22776,
      0.22955,
      0.23156,
      0.2344,
      0.23748,
      0.24032,
      0.24283,
      0.24514,
      0.24722,
      0.24905,
      0.25031,
      0.25115,
      0.25092,
      0.24993,
      0.24823,
      0.24629,
      0.2435,
      0.23833,
      0.2291,
      0.22048,
      0.21936,
      0.22663,
      0.23606,
      0.24316,
      0.24913,
      0.2556,
      0.26218,
      0.26812,
      0.27342,
      0.27764,
      0.28124,
      0.28459,
      0.28721,
      0.28954,
      0.29177,
      0.29375,
      0.29555,
      0.29706,
      0.29881,
      0.30051,
      0.30204,
      0.30377,
      0.30489,
      0.30614,
      0.30749,
      0.30863,
      0.30947,
      0.31003,
      0.31098,
      0.31126,
      0.3114,
      0.31158,
      0.31143,
      0.31092,
      0.31038,
      0.30961,
      0.30871,
      0.30787,
      0.30706,
      0.3066,
      0.30598,
      0.30619,
      0.30711,
      0.30883,
      0.31071,
      0.31312,
      0.31561,
      0.31834,
      0.32074,
      0.32324,
      0.32589,
      0.32867,
      0.33095,
      0.33305,
      0.33538,
      0.33711,
      0.33921,
      0.34086,
      0.34277,
      0.34458,
      0.34621,
      0.34774,
      0.34932,
      0.35038,
      0.35205,
      0.35331,
      0.35481,
      0.35587,
      0.35746,
      0.35848,
      0.35993,
      0.36092,
      0.36157,
      0.36274,
      0.36311,
      0.36434,
      0.36501,
      0.36608,
      0.36678,
      0.36811,
      0.36881,
      0.36979,
      0.3703,
      0.37089,
      0.37156,
      0.37258,
      0.37278,
      0.37414,
      0.37463,
      0.37564,
      0.37595,
      0.37625
    ],
    "error": [
      0.00306,
      0.00308,
      0.00297,
      0.00299,
      0.00293,
      0.00282,
      0.00293,
      0.00283,
      0.00288,
      0.00276,
      0.00276,
      0.00275,
      0.00272,
      0.0025,
      0.0024,
      0.00265,
      0.00223,
      0.00225,
      0.0022,
      0.00219,
      0.00212,
      0.00213,
      0.00216,
      0.00213,
      0.00209,
      0.00202,
      0.00177,
      0.00182,
      0.00174,
      0.00167,
      0.00158,
      0.00165,
      0.0016,
      0.00153,
      0.00158,
      0.00153,
      0.00165,
      0.00155,
      0.00154,
      0.00159,
      0.00153,
      0.00137,
      0.0015,
      0.00145,
      0.0015,
      0.00142,
      0.00142,
      0.00147,
      0.00143,
      0.00147,
      0.00144,
      0.00137,
      0.00155,
      0.00147,
      0.00157,
      0.00143,
      0.00143,
      0.00135,
      0.00144,
      0.00138,
      0.00145,
      0.00139,
      0.00142,
      0.00149,
      0.00147,
      0.00152,
      0.00152,
      0.00154,
      0.00159,
      0.00149,
      0.00156,
      0.00158,
      0.0017,
      0.00159,
      0.0014,
      0.00155,
      0.00162,
      0.0016,
      0.00162,
      0.00154,
      0.00167,
      0.00158,
      0.00166,
      0.00165,
      0.00155,
      0.00157,
      0.00166,
      0.00167,
      0.00176,
      0.00171,
      0.00164,
      0.00184,
      0.00194,
      0.00165,
      0.00144,
      0.00146,
      0.00151,
      0.00168,
      0.00171,
      0.00186,
      0.0018,
      0.00177,
      0.00166,
      0.00158,
      0.00152,
      0.00159,
      0.00142,
      0.00129,
      0.00128,
      0.00129,
      0.00145,
      0.00157,
      0.0016,
      0.00179,
      0.0019,
      0.002,
      0.00189,
      0.00202,
      0.00202,
      0.00208,
      0.00207,
      0.00197,
      0.00207,
      0.0019,
      0.0023,
      0.00197,
      0.0023,
      0.00213,
      0.00228,
      0.00247,
      0.0023,
      0.00228,
      0.00246,
      0.0023,
      0.00226,
      0.00218,
      0.00241,
      0.00258,
      0.00228,
      0.00235,
      0.00217,
      0.00241,
      0.00223,
      0.00239,
      0.00224,
      0.0022,
      0.00222,
      0.00205,
      0.00223,
      0.00217,
      0.00237,
      0.00256,
      0.0024,
      0.0025,
      0.00247,
      0.00264,
      0.00271,
      0.00272,
      0.0031,
      0.00274,
      0.00292,
      0.00284,
      0.00299,
      0.0029,
      0.00318,
      0.00316,
      0.00336,
      0.0034,
      0.00307,
      0.00338,
      0.00348,
      0.00324,
      0.00345,
      0.00336,
      0.00376,
      0.00356,
      0.00407,
      0.00354,
      0.00385,
      0.00383,
      0.00377,
      0.00377,
      0.00341,
      0.0036,
      0.00366,
      0.00375,
      0.00362,
      0.00364,
      0.00358,
      0.00352,
      0.00349,
      0.00354,
      0.00347,
      0.00366,
      0.00328,
      0.00338,
      0.00336,
      0.00351,
      0.00332,
      0.00348
    ]
  },
  "grain_size": {
    "min": 0,
    "max": 45,
    "unit": "micrometer"
  },
  "abundances": [],
  "description": "Spectrum downloaded from RELAB Spectral Database",
  "version": "0.0.1"
}