{
  "spectrum": {
    "wavelength": [
      400.0,
      401.0,
      402.0,
      403.0,
      404.0,
      405.0,
      406.0,
      407.0,
      408.0,
      409.0,
      410.0,
      411.0,
      412.0,
      413.0,
      414.0,
      415.0,
      416.0,
      417.0,
      418.0,
      419.0,
      420.0,
      421.0,
      422.0,
      423.0,
      424.0,
      425.0,
      426.0,
      427.0,
      428.0,
      429.0,
      430.0,
      431.0,
      432.0,
      433.0,
      434.0,
      435.0,
      436.0,
      437.0,
      438.0,
      439.0,
      440.0,
      441.0,
      442.0,
      443.0,
      444.0,
      445.0,
      446.0,
      447.0,
      448.0,
      449.0,
      450.0,
      451.0,
      452.0,
      453.0,
      454.0,
      455.0,
      456.0,
      457.0,
      458.0,
      459.0,
      460.0,
      461.0,
      462.0,
      463.0,
      464.0,
      465.0,
      466.0,
      467.0,
      468.0,
      469.0,
      470.0,
      471.0,
      472.0,
      473.0,
      474.0,
      475.0,
      476.0,
      477.0,
      478.0,
      479.0,
      480.0,
      481.0,
      482.0,
      483.0,
      484.0,
      485.0,
      486.0,
      487.0,
      488.0,
      489.0,
      490.0,
      491.0,
      492.0,
      493.0,
      494.0,
      495.0,
      496.0,
      497.0,
      498.0,
      499.0,
      500.0,
      501.0,
      502.0,
      503.0,
      504.0,
      505.0,
      506.0,
      507.0,
      508.0,
      509.0,
      510.0,
      511.0,
      512.0,
      513.0,
      514.0,
      515.0,
      516.0,
      517.0,
      518.0,
      519.0,
      520.0,
      521.0,
      522.0,
      523.0,
      524.0,
      525.0,
      526.0,
      527.0,
      528.0,
      529.0,
      530.0,
      531.0,
      532.0,
      533.0,
      534.0,
      535.0,
      536.0,
      537.0,
      538.0,
      539.0,
      540.0,
      541.0,
      542.0,
      543.0,
      544.0,
      545.0,
      546.0,
      547.0,
      548.0,
      549.0,
      550.0,
      551.0,
      552.0,
      553.0,
      554.0,
      555.0,
      556.0,
      557.0,
      558.0,
      559.0,
      560.0,
      561.0,
      562.0,
      563.0,
      564.0,
      565.0,
      566.0,
      567.0,
      568.0,
      569.0,
      570.0,
      571.0,
      572.0,
      573.0,
      574.0,
      575.0,
      576.0,
      577.0,
      578.0,
      579.0,
      580.0,
      581.0,
      582.0,
      583.0,
      584.0,
      585.0,
      586.0,
      587.0,
      588.0,
      589.0,
      590.0,
      591.0,
      592.0,
      593.0,
      594.0,
      595.0,
      596.0,
      597.0,
      598.0,
      599.0
    ],
    "reflectance": [
      0.38975,
      0.39673,
      0.4013,
      0.40488,
      0.408,
      0.41006,
      0.4125,
      0.41486,
      0.41785,
      0.42059,
      0.42313,
      0.42534,
      0.4277,
      0.43,
      0.43207,
      0.43473,
      0.43639,
      0.43838,
      0.44036,
      0.44163,
      0.44276,
      0.4435,
      0.44297,
      0.44258,
      0.44114,
      0.43866,
      0.43664,
      0.4345,
      0.4342,
      0.43502,
      0.43712,
      0.43967,
      0.44267,
      0.44536,
      0.44705,
      0.44936,
      0.45043,
      0.45165,
      0.45277,
      0.45314,
      0.45372,
      0.45438,
      0.45443,
      0.45445,
      0.45472,
      0.45449,
      0.45504,
      0.45561,
      0.4555,
      0.45568,
      0.45617,
      0.45638,
      0.45719,
      0.4572,
      0.45757,
      0.45811,
      0.45878,
      0.46054,
      0.4619,
      0.46324,
      0.46497,
      0.46594,
      0.46645,
      0.46689,
      0.46679,
      0.46659,
      0.46626,
      0.46523,
      0.46529,
      0.46477,
      0.46553,
      0.46618,
      0.46759,
      0.4687,
      0.46954,
      0.47017,
      0.4705,
      0.4692,
      0.469,
      0.46737,
      0.46762,
      0.46762,
      0.46837,
      0.46923,
      0.4701,
      0.47048,
      0.47123,
      0.47139,
      0.47264,
      0.47323,
      0.4761,
      0.47877,
      0.48168,
      0.48442,
      0.48737,
      0.48956,
      0.49209,
      0.49308,
      0.49486,
      0.49389,
      0.49255,
      0.48959,
      0.48568,
      0.48216,
      0.47533,
      0.45864,
      0.44063,
      0.43616,
      0.44759,
      0.46384,
      0.47679,
      0.48437,
      0.49157,
      0.50002,
      0.50765,
      0.51401,
      0.51902,
      0.52345,
      0.52611,
      0.52965,
      0.5313,
      0.5335,
      0.53497,
      0.53531,
      0.53707,
      0.53757,
      0.5387,
      0.53855,
      0.53943,
      0.54064,
      0.54095,
      0.5413,
      0.54206,
      0.54204,
      0.5416,
      0.54093,
      0.54126,
      0.54002,
      0.53858,
      0.53764,
      0.53664,
      0.5351,
      0.53328,
      0.53211,
      0.53016,
      0.52892,
      0.52741,
      0.52556,
      0.52557,
      0.5253,
      0.52618,
      0.52827,
      0.53041,
      0.53357,
      0.53677,
      0.53893,
      0.5426,
      0.54428,
      0.54761,
      0.55039,
      0.55157,
      0.55351,
      0.55596,
      0.55692,
      0.5593,
      0.56138,
      0.56258,
      0.56368,
      0.56581,
      0.5662,
      0.56693,
      0.56893,
      0.57032,
      0.57001,
      0.57065,
      0.57304,
      0.5741,
      0.57446,
      0.57494,
      0.57645,
      0.57894,
      0.57952,
      0.58027,
      0.58193,
      0.58238,
      0.5821,
      0.58475,
      0.58518,
      0.58631,
      0.58762,
      0.58818,
      0.58949,
      0.5896,
      0.59116,
      0.59251,
      0.59284,
      0.59447,
      0.59533,
      0.59605,
      0.59613
    ],
    "error": [
      0.01793,
      0.0175,
      0.01652,
      0.01502,
      0.01633,
      0.01702,
      0.01624,
      0.01587,
      0.01481,
      0.01369,
      0.01518,
      0.01645,
      0.01577,
      0.01544,
      0.01548,
      0.01472,
      0.01397,
      0.01341,
      0.01301,
      0.0136,
      0.01276,
      0.01157,
      0.01016,
      0.00952,
      0.00804,
      0.00893,
      0.01226,
      0.01142,
      0.00996,
      0.01007,
      0.0121,
      0.0122,
      0.01207,
      0.0103,
      0.00962,
      0.00943,
      0.01003,
      0.01124,
      0.01118,
      0.01112,
      0.00974,
      0.00788,
      0.01018,
      0.01059,
      0.0096,
      0.00797,
      0.00801,
      0.00927,
      0.00854,
      0.00633,
      0.00914,
      0.00967,
      0.00997,
      0.01122,
      0.00824,
      0.00919,
      0.00999,
      0.00754,
      0.01133,
      0.00993,
      0.00823,
      0.0103,
      0.00634,
      0.00996,
      0.00943,
      0.00772,
      0.01026,
      0.00634,
      0.00904,
      0.00541,
      0.00945,
      0.00729,
      0.00942,
      0.00874,
      0.00883,
      0.01,
      0.01208,
      0.0136,
      0.01077,
      0.01073,
      0.00872,
      0.01239,
      0.0093,
      0.01166,
      0.00882,
      0.01215,
      0.0088,
      0.01154,
      0.00889,
      0.01089,
      0.00862,
      0.0108,
      0.00724,
      0.01114,
      0.0073,
      0.01144,
      0.00683,
      0.01015,
      0.00607,
      0.01088,
      0.00656,
      0.00756,
      0.0095,
      0.00691,
      0.00657,
      0.00755,
      0.00601,
      0.00795,
      0.00581,
      0.00903,
      0.00695,
      0.01011,
      0.0065,
      0.01119,
      0.00771,
      0.00868,
      0.01087,
      0.00692,
      0.01112,
      0.0062,
      0.01121,
      0.00798,
      0.00853,
      0.01275,
      0.00734,
      0.00792,
      0.0128,
      0.01466,
      0.01281,
      0.00638,
      0.01101,
      0.01273,
      0.00589,
      0.00944,
      0.01145,
      0.00472,
      0.0088,
      0.01028,
      0.00345,
      0.00638,
      0.00958,
      0.0048,
      0.00532,
      0.01031,
      0.00415,
      0.00553,
      0.00923,
      0.00393,
      0.00456,
      0.00827,
      0.00257,
      0.00512,
      0.00577,
      0.00771,
      0.00695,
      0.0028,
      0.0054,
      0.00903,
      0.00303,
      0.0068,
      0.01003,
      0.00408,
      0.00749,
      0.01183,
      0.00418,
      0.00607,
      0.01128,
      0.00696,
      0.00461,
      0.0113,
      0.01229,
      0.00598,
      0.00577,
      0.0117,
      0.01026,
      0.0047,
      0.00834,
      0.01078,
      0.01449,
      0.00822,
      0.00636,
      0.01138,
      0.00906,
      0.00634,
      0.01266,
      0.01376,
      0.00866,
      0.01365,
      0.01494,
      0.0107,
      0.00509,
      0.01108,
      0.01015,
      0.00532,
      0.01025,
      0.0128,
      0.00618,
      0.0065,
      0.01052,
      0.00517
    ]
  },
  "grain_size": {
    "min": 0,
    "max": 250,
    "unit": "micrometer"
  },
  "abundances": [],
  "description": "Spectrum downloaded from RELAB Spectral Database",
  "version": "0.0.1"
}