{
  "spectrum": {
    "wavelength": [
      400.0,
      401.0,
      402.0,
      403.0,
      404.0,
      405.0,
      406.0,
      407.0,
      408.0,
      409.0,
      410.0,
      411.0,
      412.0,
      413.0,
      414.0,
      415.0,
      416.0,
      417.0,
      418.0,
      419.0,
      420.0,
      421.0,
      422.0,
      423.0,
      424.0,
      425.0,
      426.0,
      427.0,
      428.0,
      429.0,
      430.0,
      431.0,
      432.0,
      433.0,
      434.0,
      435.0,
      436.0,
      437.0,
      438.0,
      439.0,
      440.0,
      441.0,
      442.0,
      443.0,
      444.0,
      445.0,
      446.0,
      447.0,
      448.0,
      449.0,
      450.0,
      451.0,
      452.0,
      453.0,
      454.0,
      455.0,
      456.0,
      457.0,
      458.0,
      459.0,
      460.0,
      461.0,
      462.0,
      463.0,
      464.0,
      465.0,
      466.0,
      467.0,
      468.0,
      469.0,
      470.0,
      471.0,
      472.0,
      473.0,
      474.0,
      475.0,
      476.0,
      477.0,
      478.0,
      479.0,
      480.0,
      481.0,
      482.0,
      483.0,
      484.0,
      485.0,
      486.0,
      487.0,
      488.0,
      489.0,
      490.0,
      491.0,
      492.0,
      493.0,
      494.0,
      495.0,
      496.0,
      497.0,
      498.0,
      499.0,
      500.0,
      501.0,
      502.0,
      503.0,
      504.0,
      505.0,
      506.0,
      507.0,
      508.0,
      509.0,
      510.0,
      511.0,
      512.0,
      513.0,
      514.0,
      515.0,
      516.0,
      517.0,
      518.0,
      519.0,
      520.0,
      521.0,
      522.0,
      523.0,
      524.0,
      525.0,
      526.0,
      527.0,
      528.0,
      529.0,
      530.0,
      531.0,
      532.0,
      533.0,
      534.0,
      535.0,
      536.0,
      537.0,
      538.0,
      539.0,
      540.0,
      541.0,
      542.0,
      543.0,
      544.0,
      545.0,
      546.0,
      547.0,
      548.0,
      549.0,
      550.0,
      551.0,
      552.0,
      553.0,
      554.0,
      555.0,
      556.0,
      557.0,
      558.0,
      559.0,
      560.0,
      561.0,
      562.0,
      563.0,
      564.0,
      565.0,
      566.0,
      567.0,
      568.0,
      569.0,
      570.0,
      571.0,
      572.0,
      573.0,
      574.0,
      575.0,
      576.0,
      577.0,
      578.0,
      579.0,
      580.0,
      581.0,
      582.0,
      583.0,
      584.0,
      585.0,
      586.0,
      587.0,
      588.0,
      589.0,
      590.0,
      591.0,
      592.0,
      593.0,
      594.0,
      595.0,
      596.0,
      597.0,
      598.0,
      599.0
    ],
    "reflectance": [
      0.19578,
      0.19927,
      0.20169,
      0.20385,
      0.20562,
      0.20754,
      0.20933,
      0.21133,
      0.21321,
      0.21514,
      0.21701,
      0.21873,
      0.22078,
      0.2224,
      0.22455,
      0.22617,
      0.22819,
      0.22989,
      0.23167,
      0.23325,
      0.23469,
      0.23586,
      0.2371,
      0.23782,
      0.23853,
      0.23866,
      0.23882,
      0.23919,
      0.23947,
      0.24011,
      0.24103,
      0.24211,
      0.24289,
      0.24422,
      0.2451,
      0.24608,
      0.24685,
      0.24742,
      0.24818,
      0.24875,
      0.24933,
      0.24988,
      0.25021,
      0.25056,
      0.25104,
      0.25107,
      0.25147,
      0.25167,
      0.25201,
      0.25225,
      0.25244,
      0.25313,
      0.25326,
      0.25401,
      0.25433,
      0.25499,
      0.2559,
      0.25667,
      0.25769,
      0.25839,
      0.25947,
      0.26031,
      0.26107,
      0.26163,
      0.26205,
      0.26255,
      0.26295,
      0.26342,
      0.26389,
      0.26402,
      0.26476,
      0.26531,
      0.26627,
      0.26707,
      0.26795,
      0.26868,
      0.26912,
      0.26959,
      0.26982,
      0.27017,
      0.27037,
      0.27086,
      0.27166,
      0.27247,
      0.27325,
      0.2739,
      0.27452,
      0.27543,
      0.2765,
      0.27762,
      0.27898,
      0.28103,
      0.28299,
      0.28494,
      0.28666,
      0.28826,
      0.28993,
      0.29166,
      0.29285,
      0.29392,
      0.29424,
      0.29429,
      0.29418,
      0.29383,
      0.29278,
      0.28922,
      0.28368,
      0.28106,
      0.28395,
      0.29016,
      0.29572,
      0.29982,
      0.30346,
      0.30735,
      0.31117,
      0.31463,
      0.3179,
      0.3205,
      0.32272,
      0.32498,
      0.32668,
      0.32827,
      0.32991,
      0.33173,
      0.33301,
      0.33425,
      0.33571,
      0.337,
      0.3381,
      0.33951,
      0.34027,
      0.34139,
      0.34248,
      0.3435,
      0.34414,
      0.34505,
      0.34569,
      0.34613,
      0.34626,
      0.34654,
      0.34679,
      0.3467,
      0.34647,
      0.34636,
      0.34619,
      0.34606,
      0.34588,
      0.34587,
      0.34579,
      0.34661,
      0.34731,
      0.34856,
      0.34986,
      0.35148,
      0.35296,
      0.35465,
      0.35621,
      0.35796,
      0.35972,
      0.36115,
      0.36287,
      0.36373,
      0.36515,
      0.36656,
      0.36797,
      0.36914,
      0.37026,
      0.37153,
      0.37242,
      0.37346,
      0.37457,
      0.37555,
      0.37634,
      0.37744,
      0.37829,
      0.37914,
      0.38024,
      0.38079,
      0.38204,
      0.38281,
      0.38333,
      0.38431,
      0.38486,
      0.38594,
      0.38639,
      0.38702,
      0.38773,
      0.3886,
      0.389,
      0.38987,
      0.38954,
      0.39052,
      0.3912,
      0.39185,
      0.39077,
      0.39146,
      0.39197,
      0.3935,
      0.39412,
      0.39426
    ],
    "error": [
      0.00395,
      0.00396,
      0.00376,
      0.00375,
      0.00375,
      0.00376,
      0.00367,
      0.0036,
      0.00369,
      0.00348,
      0.00358,
      0.00344,
      0.00366,
      0.00356,
      0.00358,
      0.00344,
      0.00357,
      0.0035,
      0.00362,
      0.00359,
      0.00355,
      0.00365,
      0.00351,
      0.00354,
      0.00367,
      0.0036,
      0.00345,
      0.00356,
      0.00362,
      0.00351,
      0.00363,
      0.0036,
      0.00366,
      0.00357,
      0.00371,
      0.00375,
      0.0039,
      0.00385,
      0.00375,
      0.00373,
      0.00377,
      0.00369,
      0.00361,
      0.00385,
      0.00385,
      0.00376,
      0.0038,
      0.00372,
      0.00378,
      0.00384,
      0.00382,
      0.0038,
      0.00377,
      0.00392,
      0.00382,
      0.00387,
      0.00393,
      0.00386,
      0.00394,
      0.00398,
      0.00397,
      0.00392,
      0.00382,
      0.00407,
      0.00408,
      0.0041,
      0.004,
      0.00406,
      0.00403,
      0.00409,
      0.00397,
      0.00409,
      0.00415,
      0.00405,
      0.00421,
      0.00426,
      0.00427,
      0.00412,
      0.00416,
      0.00413,
      0.00427,
      0.00415,
      0.00418,
      0.00408,
      0.00429,
      0.00425,
      0.00422,
      0.00426,
      0.00416,
      0.00426,
      0.00426,
      0.00436,
      0.0045,
      0.00445,
      0.0046,
      0.00472,
      0.00471,
      0.00472,
      0.0047,
      0.00478,
      0.00475,
      0.0047,
      0.00468,
      0.00466,
      0.00446,
      0.00449,
      0.00448,
      0.00429,
      0.00425,
      0.00436,
      0.00446,
      0.00459,
      0.00448,
      0.00481,
      0.00475,
      0.00475,
      0.00486,
      0.00476,
      0.00506,
      0.00505,
      0.00508,
      0.00487,
      0.00506,
      0.00504,
      0.00529,
      0.00502,
      0.00519,
      0.00512,
      0.00525,
      0.00528,
      0.00528,
      0.00536,
      0.00522,
      0.00533,
      0.00528,
      0.00538,
      0.00517,
      0.00521,
      0.00518,
      0.00545,
      0.00522,
      0.00537,
      0.00516,
      0.00518,
      0.00513,
      0.00508,
      0.00499,
      0.00534,
      0.0051,
      0.00513,
      0.00515,
      0.00534,
      0.00503,
      0.00532,
      0.00523,
      0.00524,
      0.00539,
      0.00543,
      0.00528,
      0.00521,
      0.00539,
      0.00542,
      0.00564,
      0.00546,
      0.00538,
      0.00533,
      0.00544,
      0.00558,
      0.00558,
      0.00547,
      0.0055,
      0.00548,
      0.00558,
      0.00555,
      0.00562,
      0.0056,
      0.00574,
      0.00558,
      0.00578,
      0.0059,
      0.00566,
      0.0058,
      0.00578,
      0.00589,
      0.00571,
      0.00575,
      0.00578,
      0.0059,
      0.00576,
      0.00578,
      0.00574,
      0.00579,
      0.00579,
      0.00614,
      0.00588,
      0.00569,
      0.00594,
      0.00604,
      0.00592,
      0.00603
    ]
  },
  "grain_size": {
    "min": 0,
    "max": 45,
    "unit": "micrometer"
  },
  "abundances": [],
  "description": "Spectrum downloaded from RELAB Spectral Database",
  "version": "0.0.1"
}