{
  "spectrum": {
    "wavelength": [
      400.0,
      401.0,
      402.0,
      403.0,
      404.0,
      405.0,
      406.0,
      407.0,
      408.0,
      409.0,
      410.0,
      411.0,
      412.0,
      413.0,
      414.0,
      415.0,
      416.0,
      417.0,
      418.0,
      419.0,
      420.0,
      421.0,
      422.0,
      423.0,
      424.0,
      425.0,
      426.0,
      427.0,
      428.0,
      429.0,
      430.0,
      431.0,
      432.0,
      433.0,
      434.0,
      435.0,
      436.0,
      437.0,
      438.0,
      439.0,
      440.0,
      441.0,
      442.0,
      443.0,
      444.0,
      445.0,
      446.0,
      447.0,
      448.0,
      449.0,
      450.0,
      451.0,
      452.0,
      453.0,
      454.0,
      455.0,
      456.0,
      457.0,
      458.0,
      459.0,
      460.0,
      461.0,
      462.0,
      463.0,
      464.0,
      465.0,
      466.0,
      467.0,
      468.0,
      469.0,
      470.0,
      471.0,
      472.0,
      473.0,
      474.0,
      475.0,
      476.0,
      477.0,
      478.0,
      479.0,
      480.0,
      481.0,
      482.0,
      483.0,
      484.0,
      485.0,
      486.0,
      487.0,
      488.0,
      489.0,
      490.0,
      491.0,
      492.0,
      493.0,
      494.0,
      495.0,
      496.0,
      497.0,
      498.0,
      499.0,
      500.0,
      501.0,
      502.0,
      503.0,
      504.0,
      505.0,
      506.0,
      507.0,
      508.0,
      509.0,
      510.0,
      511.0,
      512.0,
      513.0,
      514.0,
      515.0,
      516.0,
      517.0,
      518.0,
      519.0,
      520.0,
      521.0,
      522.0,
      523.0,
      524.0,
      525.0,
      526.0,
      527.0,
      528.0,
      529.0,
      530.0,
      531.0,
      532.0,
      533.0,
      534.0,
      535.0,
      536.0,
      537.0,
      538.0,
      539.0,
      540.0,
      541.0,
      542.0,
      543.0,
      544.0,
      545.0,
      546.0,
      547.0,
      548.0,
      549.0,
      550.0,
      551.0,
      552.0,
      553.0,
      554.0,
      555.0,
      556.0,
      557.0,
      558.0,
      559.0,
      560.0,
      561.0,
      562.0,
      563.0,
      564.0,
      565.0,
      566.0,
      567.0,
      568.0,
      569.0,
      570.0,
      571.0,
      572.0,
      573.0,
      574.0,
      575.0,
      576.0,
      577.0,
      578.0,
      579.0,
      580.0,
      581.0,
      582.0,
      583.0,
      584.0,
      585.0,
      586.0,
      587.0,
      588.0,
      589.0,
      590.0,
      591.0,
      592.0,
      593.0,
      594.0,
      595.0,
      596.0,
      597.0,
      598.0,
      599.0
    ],
    "reflectance": [
      0.233,
      0.23881,
      0.24385,
      0.24769,
      0.25151,
      0.25498,
      0.25765,
      0.26008,
      0.26272,
      0.2647,
      0.2678,
      0.27009,
      0.2731,
      0.27511,
      0.27763,
      0.27984,
      0.28254,
      0.28468,
      0.28691,
      0.28947,
      0.29106,
      0.29198,
      0.29345,
      0.29324,
      0.29291,
      0.29231,
      0.29155,
      0.28993,
      0.28971,
      0.28874,
      0.2891,
      0.29037,
      0.29144,
      0.29258,
      0.29416,
      0.29608,
      0.2977,
      0.29964,
      0.30057,
      0.30269,
      0.30424,
      0.30469,
      0.30569,
      0.30603,
      0.30704,
      0.30756,
      0.30837,
      0.30839,
      0.30865,
      0.30947,
      0.31016,
      0.31119,
      0.31087,
      0.31165,
      0.31231,
      0.31338,
      0.31456,
      0.31608,
      0.31751,
      0.31912,
      0.32115,
      0.32265,
      0.32413,
      0.32515,
      0.32546,
      0.3263,
      0.32613,
      0.32637,
      0.32602,
      0.32615,
      0.32638,
      0.32666,
      0.32743,
      0.32829,
      0.32869,
      0.3294,
      0.32934,
      0.32908,
      0.32874,
      0.32811,
      0.32818,
      0.32859,
      0.32888,
      0.32942,
      0.3305,
      0.33042,
      0.33119,
      0.33206,
      0.33331,
      0.33502,
      0.33759,
      0.34066,
      0.34362,
      0.34738,
      0.35069,
      0.35307,
      0.35539,
      0.35746,
      0.35866,
      0.35866,
      0.35797,
      0.3549,
      0.35132,
      0.34788,
      0.34136,
      0.33001,
      0.31732,
      0.30901,
      0.30859,
      0.31487,
      0.32242,
      0.33029,
      0.33757,
      0.34602,
      0.35468,
      0.36297,
      0.36915,
      0.37593,
      0.38043,
      0.38452,
      0.38818,
      0.39118,
      0.39357,
      0.395,
      0.397,
      0.39825,
      0.39953,
      0.4005,
      0.40153,
      0.40222,
      0.40325,
      0.40414,
      0.40442,
      0.40535,
      0.40487,
      0.40526,
      0.40394,
      0.40414,
      0.40317,
      0.40172,
      0.40146,
      0.3992,
      0.39763,
      0.39545,
      0.39383,
      0.39218,
      0.39049,
      0.38977,
      0.38827,
      0.38739,
      0.3885,
      0.38985,
      0.39139,
      0.39444,
      0.39692,
      0.39996,
      0.40344,
      0.40629,
      0.40935,
      0.41225,
      0.41535,
      0.41763,
      0.41976,
      0.42155,
      0.42381,
      0.42593,
      0.42792,
      0.42916,
      0.43001,
      0.43174,
      0.43355,
      0.43469,
      0.43525,
      0.43703,
      0.43859,
      0.43906,
      0.43961,
      0.44064,
      0.44211,
      0.44159,
      0.44314,
      0.44317,
      0.44489,
      0.44504,
      0.44566,
      0.44649,
      0.44642,
      0.44741,
      0.44895,
      0.44973,
      0.44981,
      0.44988,
      0.45094,
      0.4515,
      0.45184,
      0.45176,
      0.45227,
      0.45289,
      0.45278,
      0.45365
    ],
    "error": [
      0.00816,
      0.00807,
      0.00799,
      0.00823,
      0.00819,
      0.0083,
      0.00862,
      0.00854,
      0.0086,
      0.00872,
      0.00838,
      0.00777,
      0.00827,
      0.00844,
      0.00829,
      0.00843,
      0.0083,
      0.00856,
      0.00859,
      0.00864,
      0.00897,
      0.0091,
      0.00899,
      0.00873,
      0.00883,
      0.00864,
      0.00879,
      0.00885,
      0.00838,
      0.00847,
      0.00869,
      0.00825,
      0.00845,
      0.00843,
      0.00868,
      0.00858,
      0.00847,
      0.00858,
      0.00861,
      0.00881,
      0.00865,
      0.00877,
      0.00879,
      0.00906,
      0.0085,
      0.00849,
      0.00834,
      0.00844,
      0.00871,
      0.00846,
      0.00817,
      0.0078,
      0.00769,
      0.00768,
      0.00774,
      0.00779,
      0.00777,
      0.0077,
      0.00771,
      0.00775,
      0.0079,
      0.00784,
      0.00819,
      0.0078,
      0.00793,
      0.00786,
      0.00795,
      0.00817,
      0.00798,
      0.00798,
      0.00796,
      0.00805,
      0.00813,
      0.00814,
      0.00804,
      0.00821,
      0.00796,
      0.00822,
      0.00795,
      0.0081,
      0.00812,
      0.00743,
      0.008,
      0.00773,
      0.00774,
      0.00769,
      0.00769,
      0.00774,
      0.00785,
      0.00758,
      0.00802,
      0.00797,
      0.00814,
      0.00819,
      0.00849,
      0.00844,
      0.00858,
      0.00838,
      0.00799,
      0.00824,
      0.00823,
      0.00831,
      0.00796,
      0.00761,
      0.00785,
      0.00742,
      0.00711,
      0.00685,
      0.00693,
      0.00716,
      0.00752,
      0.00754,
      0.00752,
      0.00775,
      0.00782,
      0.00813,
      0.00829,
      0.00835,
      0.00844,
      0.00895,
      0.00878,
      0.00903,
      0.00904,
      0.00883,
      0.00871,
      0.00898,
      0.00911,
      0.00879,
      0.00925,
      0.00891,
      0.00878,
      0.00916,
      0.00945,
      0.00949,
      0.00901,
      0.00921,
      0.00925,
      0.00915,
      0.00899,
      0.00919,
      0.00906,
      0.00906,
      0.00871,
      0.00906,
      0.00938,
      0.00886,
      0.00888,
      0.00871,
      0.00887,
      0.00913,
      0.00851,
      0.00856,
      0.00882,
      0.00846,
      0.00846,
      0.00864,
      0.00872,
      0.00882,
      0.00937,
      0.00919,
      0.0088,
      0.00901,
      0.0094,
      0.00945,
      0.00927,
      0.00995,
      0.00957,
      0.00959,
      0.00989,
      0.00986,
      0.00984,
      0.00994,
      0.00981,
      0.00949,
      0.00973,
      0.00973,
      0.01002,
      0.01024,
      0.00981,
      0.01023,
      0.01045,
      0.01078,
      0.0106,
      0.01082,
      0.0109,
      0.01095,
      0.01118,
      0.01085,
      0.01089,
      0.01125,
      0.01105,
      0.01047,
      0.01079,
      0.01075,
      0.01077,
      0.01092,
      0.01052,
      0.01066,
      0.01075,
      0.01083
    ]
  },
  "grain_size": {
    "min": 0,
    "max": 50,
    "unit": "micrometer"
  },
  "abundances": [],
  "description": "Spectrum downloaded from RELAB Spectral Database",
  "version": "0.0.1"
}