{
  "spectrum": {
    "wavelength": [
      400.0,
      401.0,
      402.0,
      403.0,
      404.0,
      405.0,
      406.0,
      407.0,
      408.0,
      409.0,
      410.0,
      411.0,
      412.0,
      413.0,
      414.0,
      415.0,
      416.0,
      417.0,
      418.0,
      419.0,
      420.0,
      421.0,
      422.0,
      423.0,
      424.0,
      425.0,
      426.0,
      427.0,
      428.0,
      429.0,
      430.0,
      431.0,
      432.0,
      433.0,
      434.0,
      435.0,
      436.0,
      437.0,
      438.0,
      439.0,
      440.0,
      441.0,
      442.0,
      443.0,
      444.0,
      445.0,
      446.0,
      447.0,
      448.0,
      449.0,
      450.0,
      451.0,
      452.0,
      453.0,
      454.0,
      455.0,
      456.0,
      457.0,
      458.0,
      459.0,
      460.0,
      461.0,
      462.0,
      463.0,
      464.0,
      465.0,
      466.0,
      467.0,
      468.0,
      469.0,
      470.0,
      471.0,
      472.0,
      473.0,
      474.0,
      475.0,
      476.0,
      477.0,
      478.0,
      479.0,
      480.0,
      481.0,
      482.0,
      483.0,
      484.0,
      485.0,
      486.0,
      487.0,
      488.0,
      489.0,
      490.0,
      491.0,
      492.0,
      493.0,
      494.0,
      495.0,
      496.0,
      497.0,
      498.0,
      499.0,
      500.0,
      501.0,
      502.0,
      503.0,
      504.0,
      505.0,
      506.0,
      507.0,
      508.0,
      509.0,
      510.0,
      511.0,
      512.0,
      513.0,
      514.0,
      515.0,
      516.0,
      517.0,
      518.0,
      519.0,
      520.0,
      521.0,
      522.0,
      523.0,
      524.0,
      525.0,
      526.0,
      527.0,
      528.0,
      529.0,
      530.0,
      531.0,
      532.0,
      533.0,
      534.0,
      535.0,
      536.0,
      537.0,
      538.0,
      539.0,
      540.0,
      541.0,
      542.0,
      543.0,
      544.0,
      545.0,
      546.0,
      547.0,
      548.0,
      549.0,
      550.0,
      551.0,
      552.0,
      553.0,
      554.0,
      555.0,
      556.0,
      557.0,
      558.0,
      559.0,
      560.0,
      561.0,
      562.0,
      563.0,
      564.0,
      565.0,
      566.0,
      567.0,
      568.0,
      569.0,
      570.0,
      571.0,
      572.0,
      573.0,
      574.0,
      575.0,
      576.0,
      577.0,
      578.0,
      579.0,
      580.0,
      581.0,
      582.0,
      583.0,
      584.0,
      585.0,
      586.0,
      587.0,
      588.0,
      589.0,
      590.0,
      591.0,
      592.0,
      593.0,
      594.0,
      595.0,
      596.0,
      597.0,
      598.0,
      599.0
    ],
    "reflectance": [
      0.14072,
      0.14251,
      0.14443,
      0.14607,
      0.14794,
      0.14931,
      0.15116,
      0.15271,
      0.15434,
      0.15603,
      0.15712,
      0.15847,
      0.16004,
      0.16144,
      0.1625,
      0.1639,
      0.16506,
      0.16644,
      0.16755,
      0.16878,
      0.16999,
      0.17121,
      0.17203,
      0.17333,
      0.1743,
      0.17526,
      0.17586,
      0.17683,
      0.17799,
      0.17846,
      0.17931,
      0.17957,
      0.18045,
      0.18104,
      0.18141,
      0.18204,
      0.18233,
      0.18276,
      0.18317,
      0.18334,
      0.18394,
      0.18425,
      0.18443,
      0.18507,
      0.18507,
      0.1855,
      0.18601,
      0.18642,
      0.18679,
      0.1873,
      0.18774,
      0.18811,
      0.18842,
      0.18912,
      0.18957,
      0.19033,
      0.19094,
      0.19169,
      0.19252,
      0.1935,
      0.19451,
      0.19529,
      0.19654,
      0.19736,
      0.19823,
      0.1992,
      0.20035,
      0.20135,
      0.20241,
      0.20322,
      0.20447,
      0.20542,
      0.20646,
      0.20739,
      0.20848,
      0.20915,
      0.21004,
      0.21096,
      0.21173,
      0.2125,
      0.21309,
      0.21385,
      0.21477,
      0.21532,
      0.21584,
      0.21638,
      0.21713,
      0.21755,
      0.21808,
      0.2186,
      0.21935,
      0.22018,
      0.22141,
      0.2224,
      0.22364,
      0.22452,
      0.22565,
      0.22683,
      0.22777,
      0.22884,
      0.22984,
      0.23069,
      0.23165,
      0.23261,
      0.23344,
      0.23407,
      0.23454,
      0.23465,
      0.23404,
      0.23406,
      0.23488,
      0.23647,
      0.23844,
      0.24055,
      0.24268,
      0.24471,
      0.24687,
      0.24848,
      0.25014,
      0.25196,
      0.25361,
      0.25514,
      0.25655,
      0.25808,
      0.25927,
      0.2607,
      0.26193,
      0.2632,
      0.26477,
      0.26603,
      0.26715,
      0.26829,
      0.26951,
      0.27068,
      0.27158,
      0.2727,
      0.2738,
      0.27473,
      0.27574,
      0.27652,
      0.27753,
      0.27798,
      0.27898,
      0.27967,
      0.28033,
      0.28058,
      0.28156,
      0.2819,
      0.28225,
      0.28306,
      0.28333,
      0.28375,
      0.28434,
      0.28524,
      0.2862,
      0.28706,
      0.28769,
      0.2889,
      0.28988,
      0.2908,
      0.29153,
      0.29227,
      0.2929,
      0.29367,
      0.29434,
      0.29495,
      0.29565,
      0.29626,
      0.297,
      0.29754,
      0.29786,
      0.29847,
      0.29905,
      0.29933,
      0.29976,
      0.30034,
      0.30063,
      0.30123,
      0.30137,
      0.30183,
      0.30216,
      0.3028,
      0.30288,
      0.30315,
      0.30357,
      0.30377,
      0.30386,
      0.30427,
      0.30479,
      0.30475,
      0.30489,
      0.30485,
      0.30522,
      0.30538,
      0.30581,
      0.30564,
      0.30596,
      0.30609,
      0.30625,
      0.30619
    ],
    "error": [
      0.00427,
      0.00444,
      0.00415,
      0.00396,
      0.00378,
      0.00382,
      0.00373,
      0.0037,
      0.00366,
      0.0037,
      0.00359,
      0.00346,
      0.00356,
      0.00358,
      0.00357,
      0.00341,
      0.00338,
      0.00338,
      0.00346,
      0.00345,
      0.00348,
      0.00346,
      0.00338,
      0.00343,
      0.0034,
      0.00376,
      0.00369,
      0.00389,
      0.00373,
      0.00385,
      0.00387,
      0.00376,
      0.00384,
      0.00381,
      0.00392,
      0.00385,
      0.00393,
      0.00375,
      0.00394,
      0.00385,
      0.00374,
      0.00383,
      0.00389,
      0.00391,
      0.00395,
      0.00397,
      0.00413,
      0.00401,
      0.00393,
      0.00394,
      0.00395,
      0.00411,
      0.00402,
      0.00406,
      0.00406,
      0.0041,
      0.00411,
      0.0041,
      0.00412,
      0.00406,
      0.00413,
      0.00418,
      0.00416,
      0.00417,
      0.0043,
      0.00438,
      0.00419,
      0.00436,
      0.00437,
      0.00431,
      0.00437,
      0.00431,
      0.00424,
      0.0044,
      0.00429,
      0.00432,
      0.0044,
      0.00437,
      0.00439,
      0.00453,
      0.00447,
      0.00452,
      0.00445,
      0.00446,
      0.00446,
      0.00449,
      0.00438,
      0.00446,
      0.00453,
      0.00471,
      0.00451,
      0.00453,
      0.0044,
      0.00464,
      0.00441,
      0.00434,
      0.00441,
      0.0045,
      0.00453,
      0.00451,
      0.00462,
      0.00456,
      0.00459,
      0.00468,
      0.00462,
      0.00482,
      0.00468,
      0.00461,
      0.00469,
      0.00449,
      0.00473,
      0.00476,
      0.00472,
      0.00482,
      0.00487,
      0.00477,
      0.00491,
      0.00489,
      0.00487,
      0.00495,
      0.00494,
      0.00507,
      0.0051,
      0.00497,
      0.00504,
      0.0051,
      0.00499,
      0.00519,
      0.005,
      0.00509,
      0.00521,
      0.00517,
      0.0051,
      0.00518,
      0.00524,
      0.00517,
      0.00526,
      0.00524,
      0.00534,
      0.00527,
      0.00522,
      0.00533,
      0.00542,
      0.00523,
      0.00533,
      0.00543,
      0.00519,
      0.00517,
      0.00533,
      0.00541,
      0.00535,
      0.00533,
      0.00534,
      0.00542,
      0.00544,
      0.00527,
      0.0054,
      0.0054,
      0.00538,
      0.00541,
      0.00554,
      0.00544,
      0.00531,
      0.00521,
      0.00528,
      0.00573,
      0.00552,
      0.00537,
      0.00552,
      0.00562,
      0.00542,
      0.00543,
      0.00547,
      0.00525,
      0.00533,
      0.00524,
      0.00541,
      0.00553,
      0.00529,
      0.00549,
      0.00552,
      0.00544,
      0.00557,
      0.00536,
      0.00519,
      0.00538,
      0.00535,
      0.00561,
      0.00522,
      0.0054,
      0.00543,
      0.00541,
      0.00531,
      0.00541,
      0.00543,
      0.00543,
      0.00519,
      0.00546,
      0.00554,
      0.00539
    ]
  },
  "grain_size": {
    "min": 0,
    "max": 100,
    "unit": "micrometer"
  },
  "abundances": [],
  "description": "Spectrum downloaded from RELAB Spectral Database",
  "version": "0.0.1"
}