{
  "spectrum": {
    "wavelength": [
      400.0,
      401.0,
      402.0,
      403.0,
      404.0,
      405.0,
      406.0,
      407.0,
      408.0,
      409.0,
      410.0,
      411.0,
      412.0,
      413.0,
      414.0,
      415.0,
      416.0,
      417.0,
      418.0,
      419.0,
      420.0,
      421.0,
      422.0,
      423.0,
      424.0,
      425.0,
      426.0,
      427.0,
      428.0,
      429.0,
      430.0,
      431.0,
      432.0,
      433.0,
      434.0,
      435.0,
      436.0,
      437.0,
      438.0,
      439.0,
      440.0,
      441.0,
      442.0,
      443.0,
      444.0,
      445.0,
      446.0,
      447.0,
      448.0,
      449.0,
      450.0,
      451.0,
      452.0,
      453.0,
      454.0,
      455.0,
      456.0,
      457.0,
      458.0,
      459.0,
      460.0,
      461.0,
      462.0,
      463.0,
      464.0,
      465.0,
      466.0,
      467.0,
      468.0,
      469.0,
      470.0,
      471.0,
      472.0,
      473.0,
      474.0,
      475.0,
      476.0,
      477.0,
      478.0,
      479.0,
      480.0,
      481.0,
      482.0,
      483.0,
      484.0,
      485.0,
      486.0,
      487.0,
      488.0,
      489.0,
      490.0,
      491.0,
      492.0,
      493.0,
      494.0,
      495.0,
      496.0,
      497.0,
      498.0,
      499.0,
      500.0,
      501.0,
      502.0,
      503.0,
      504.0,
      505.0,
      506.0,
      507.0,
      508.0,
      509.0,
      510.0,
      511.0,
      512.0,
      513.0,
      514.0,
      515.0,
      516.0,
      517.0,
      518.0,
      519.0,
      520.0,
      521.0,
      522.0,
      523.0,
      524.0,
      525.0,
      526.0,
      527.0,
      528.0,
      529.0,
      530.0,
      531.0,
      532.0,
      533.0,
      534.0,
      535.0,
      536.0,
      537.0,
      538.0,
      539.0,
      540.0,
      541.0,
      542.0,
      543.0,
      544.0,
      545.0,
      546.0,
      547.0,
      548.0,
      549.0,
      550.0,
      551.0,
      552.0,
      553.0,
      554.0,
      555.0,
      556.0,
      557.0,
      558.0,
      559.0,
      560.0,
      561.0,
      562.0,
      563.0,
      564.0,
      565.0,
      566.0,
      567.0,
      568.0,
      569.0,
      570.0,
      571.0,
      572.0,
      573.0,
      574.0,
      575.0,
      576.0,
      577.0,
      578.0,
      579.0,
      580.0,
      581.0,
      582.0,
      583.0,
      584.0,
      585.0,
      586.0,
      587.0,
      588.0,
      589.0,
      590.0,
      591.0,
      592.0,
      593.0,
      594.0,
      595.0,
      596.0,
      597.0,
      598.0,
      599.0
    ],
    "reflectance": [
      0.10467,
      0.10656,
      0.10832,
      0.10982,
      0.11096,
      0.11257,
      0.11393,
      0.11546,
      0.11681,
      0.1184,
      0.11994,
      0.12146,
      0.12264,
      0.12383,
      0.12519,
      0.12635,
      0.12763,
      0.12879,
      0.12986,
      0.13088,
      0.13179,
      0.13268,
      0.13352,
      0.13436,
      0.1352,
      0.13567,
      0.13621,
      0.13678,
      0.13717,
      0.13759,
      0.13792,
      0.13827,
      0.13843,
      0.13866,
      0.13867,
      0.1387,
      0.13863,
      0.13865,
      0.13858,
      0.13817,
      0.13825,
      0.13806,
      0.13779,
      0.13744,
      0.13726,
      0.13683,
      0.13663,
      0.13633,
      0.13618,
      0.13621,
      0.13607,
      0.13615,
      0.13627,
      0.13648,
      0.13667,
      0.13699,
      0.13744,
      0.13783,
      0.13857,
      0.13926,
      0.14015,
      0.14088,
      0.14157,
      0.14257,
      0.14334,
      0.14427,
      0.14515,
      0.1461,
      0.14711,
      0.14802,
      0.14899,
      0.14995,
      0.15076,
      0.15183,
      0.15284,
      0.1535,
      0.15454,
      0.15536,
      0.1562,
      0.15711,
      0.15802,
      0.15885,
      0.15964,
      0.16038,
      0.16099,
      0.16179,
      0.16267,
      0.16351,
      0.16422,
      0.16503,
      0.16611,
      0.1671,
      0.16826,
      0.16931,
      0.17056,
      0.17185,
      0.17307,
      0.17427,
      0.17549,
      0.17704,
      0.17853,
      0.17992,
      0.18138,
      0.18287,
      0.18432,
      0.18589,
      0.18748,
      0.18879,
      0.19042,
      0.19184,
      0.193,
      0.19488,
      0.1964,
      0.1988,
      0.2007,
      0.20243,
      0.20435,
      0.20608,
      0.20778,
      0.20969,
      0.21147,
      0.21317,
      0.21492,
      0.2166,
      0.21839,
      0.22009,
      0.22202,
      0.22362,
      0.22527,
      0.22691,
      0.22837,
      0.23,
      0.23159,
      0.23304,
      0.2345,
      0.23601,
      0.23726,
      0.23859,
      0.23973,
      0.24084,
      0.24223,
      0.24339,
      0.24418,
      0.24543,
      0.24641,
      0.24737,
      0.24843,
      0.24916,
      0.24998,
      0.25081,
      0.25164,
      0.25226,
      0.25301,
      0.25379,
      0.2546,
      0.25533,
      0.2561,
      0.25687,
      0.25735,
      0.25805,
      0.25882,
      0.25931,
      0.25991,
      0.2604,
      0.26105,
      0.26166,
      0.26199,
      0.26245,
      0.26277,
      0.26319,
      0.26377,
      0.26416,
      0.26449,
      0.2648,
      0.26523,
      0.26531,
      0.26572,
      0.26601,
      0.26607,
      0.26649,
      0.26646,
      0.26636,
      0.26664,
      0.26679,
      0.26699,
      0.26736,
      0.26708,
      0.26715,
      0.26729,
      0.26712,
      0.26731,
      0.26711,
      0.26714,
      0.26709,
      0.26702,
      0.26698,
      0.26705,
      0.267,
      0.26688,
      0.26679
    ],
    "error": [
      0.00324,
      0.0031,
      0.0029,
      0.00273,
      0.00256,
      0.0025,
      0.00244,
      0.00236,
      0.0022,
      0.00214,
      0.00212,
      0.00205,
      0.00198,
      0.00184,
      0.00181,
      0.00172,
      0.00169,
      0.00163,
      0.00164,
      0.00157,
      0.00153,
      0.00148,
      0.00154,
      0.0014,
      0.00148,
      0.00153,
      0.00142,
      0.00135,
      0.00138,
      0.00132,
      0.00131,
      0.00133,
      0.00131,
      0.00124,
      0.00127,
      0.0013,
      0.00118,
      0.0012,
      0.00121,
      0.00125,
      0.00121,
      0.00134,
      0.00121,
      0.00116,
      0.00113,
      0.00113,
      0.00104,
      0.00112,
      0.00111,
      0.00117,
      0.0012,
      0.00114,
      0.00108,
      0.00104,
      0.00109,
      0.00102,
      0.001,
      0.00099,
      0.00105,
      0.00103,
      0.00104,
      0.001,
      0.00106,
      0.00104,
      0.00103,
      0.00102,
      0.00109,
      0.00114,
      0.00109,
      0.00108,
      0.00097,
      0.0011,
      0.00101,
      0.00116,
      0.001,
      0.00101,
      0.00111,
      0.00108,
      0.001,
      0.00098,
      0.00111,
      0.00114,
      0.00101,
      0.00099,
      0.00098,
      0.00112,
      0.00107,
      0.00099,
      0.00111,
      0.00105,
      0.00106,
      0.00113,
      0.00101,
      0.00107,
      0.00104,
      0.001,
      0.00103,
      0.00105,
      0.00102,
      0.00099,
      0.00105,
      0.00119,
      0.00105,
      0.00109,
      0.00112,
      0.00107,
      0.00106,
      0.0011,
      0.001,
      0.00111,
      0.00112,
      0.00111,
      0.00114,
      0.00103,
      0.00118,
      0.0011,
      0.00124,
      0.00108,
      0.00118,
      0.00108,
      0.00116,
      0.0011,
      0.00114,
      0.00127,
      0.00109,
      0.00124,
      0.00124,
      0.00121,
      0.0012,
      0.00135,
      0.0012,
      0.00124,
      0.00116,
      0.00118,
      0.00116,
      0.00143,
      0.00122,
      0.00119,
      0.0013,
      0.00133,
      0.00117,
      0.00135,
      0.0014,
      0.00124,
      0.00125,
      0.00139,
      0.00128,
      0.00123,
      0.0014,
      0.0013,
      0.0013,
      0.00119,
      0.00146,
      0.00128,
      0.00135,
      0.00135,
      0.00129,
      0.00128,
      0.00129,
      0.00131,
      0.00123,
      0.00144,
      0.00125,
      0.00129,
      0.00134,
      0.00129,
      0.00115,
      0.00125,
      0.00118,
      0.00133,
      0.00129,
      0.00131,
      0.00124,
      0.00133,
      0.00136,
      0.00123,
      0.0013,
      0.0014,
      0.00129,
      0.00137,
      0.00132,
      0.00132,
      0.00127,
      0.00141,
      0.00137,
      0.00152,
      0.00129,
      0.00136,
      0.00134,
      0.00131,
      0.00133,
      0.00144,
      0.00137,
      0.00125,
      0.00131,
      0.00142,
      0.00131,
      0.00139,
      0.00139,
      0.00129
    ]
  },
  "grain_size": {
    "min": 0,
    "max": 100,
    "unit": "micrometer"
  },
  "abundances": [],
  "description": "Spectrum downloaded from RELAB Spectral Database",
  "version": "0.0.1"
}