{
  "spectrum": {
    "wavelength": [
      400.0,
      401.0,
      402.0,
      403.0,
      404.0,
      405.0,
      406.0,
      407.0,
      408.0,
      409.0,
      410.0,
      411.0,
      412.0,
      413.0,
      414.0,
      415.0,
      416.0,
      417.0,
      418.0,
      419.0,
      420.0,
      421.0,
      422.0,
      423.0,
      424.0,
      425.0,
      426.0,
      427.0,
      428.0,
      429.0,
      430.0,
      431.0,
      432.0,
      433.0,
      434.0,
      435.0,
      436.0,
      437.0,
      438.0,
      439.0,
      440.0,
      441.0,
      442.0,
      443.0,
      444.0,
      445.0,
      446.0,
      447.0,
      448.0,
      449.0,
      450.0,
      451.0,
      452.0,
      453.0,
      454.0,
      455.0,
      456.0,
      457.0,
      458.0,
      459.0,
      460.0,
      461.0,
      462.0,
      463.0,
      464.0,
      465.0,
      466.0,
      467.0,
      468.0,
      469.0,
      470.0,
      471.0,
      472.0,
      473.0,
      474.0,
      475.0,
      476.0,
      477.0,
      478.0,
      479.0,
      480.0,
      481.0,
      482.0,
      483.0,
      484.0,
      485.0,
      486.0,
      487.0,
      488.0,
      489.0,
      490.0,
      491.0,
      492.0,
      493.0,
      494.0,
      495.0,
      496.0,
      497.0,
      498.0,
      499.0,
      500.0,
      501.0,
      502.0,
      503.0,
      504.0,
      505.0,
      506.0,
      507.0,
      508.0,
      509.0,
      510.0,
      511.0,
      512.0,
      513.0,
      514.0,
      515.0,
      516.0,
      517.0,
      518.0,
      519.0,
      520.0,
      521.0,
      522.0,
      523.0,
      524.0,
      525.0,
      526.0,
      527.0,
      528.0,
      529.0,
      530.0,
      531.0,
      532.0,
      533.0,
      534.0,
      535.0,
      536.0,
      537.0,
      538.0,
      539.0,
      540.0,
      541.0,
      542.0,
      543.0,
      544.0,
      545.0,
      546.0,
      547.0,
      548.0,
      549.0,
      550.0,
      551.0,
      552.0,
      553.0,
      554.0,
      555.0,
      556.0,
      557.0,
      558.0,
      559.0,
      560.0,
      561.0,
      562.0,
      563.0,
      564.0,
      565.0,
      566.0,
      567.0,
      568.0,
      569.0,
      570.0,
      571.0,
      572.0,
      573.0,
      574.0,
      575.0,
      576.0,
      577.0,
      578.0,
      579.0,
      580.0,
      581.0,
      582.0,
      583.0,
      584.0,
      585.0,
      586.0,
      587.0,
      588.0,
      589.0,
      590.0,
      591.0,
      592.0,
      593.0,
      594.0,
      595.0,
      596.0,
      597.0,
      598.0,
      599.0
    ],
    "reflectance": [
      0.47097,
      0.47603,
      0.47916,
      0.48181,
      0.48467,
      0.48596,
      0.48858,
      0.49046,
      0.49183,
      0.4933,
      0.49392,
      0.49562,
      0.4978,
      0.49813,
      0.4994,
      0.49994,
      0.50116,
      0.50283,
      0.50387,
      0.50464,
      0.50593,
      0.5068,
      0.50758,
      0.50879,
      0.50871,
      0.50976,
      0.51028,
      0.51138,
      0.51152,
      0.51148,
      0.51301,
      0.51331,
      0.51281,
      0.51343,
      0.5128,
      0.5124,
      0.51193,
      0.51341,
      0.51261,
      0.5135,
      0.5135,
      0.51422,
      0.51379,
      0.51449,
      0.51424,
      0.51505,
      0.51484,
      0.51496,
      0.515,
      0.51572,
      0.51556,
      0.51554,
      0.51641,
      0.5165,
      0.51645,
      0.51702,
      0.5181,
      0.51893,
      0.51957,
      0.52014,
      0.52132,
      0.52188,
      0.52326,
      0.52398,
      0.52509,
      0.52619,
      0.52675,
      0.52754,
      0.52892,
      0.53036,
      0.53114,
      0.53297,
      0.53372,
      0.53518,
      0.53593,
      0.5369,
      0.5382,
      0.53873,
      0.53878,
      0.54042,
      0.54074,
      0.54268,
      0.54236,
      0.54373,
      0.54324,
      0.54499,
      0.54426,
      0.54595,
      0.54628,
      0.54725,
      0.54681,
      0.54832,
      0.55018,
      0.55149,
      0.55266,
      0.55235,
      0.55293,
      0.55458,
      0.55526,
      0.55691,
      0.55713,
      0.55819,
      0.55897,
      0.55972,
      0.5609,
      0.55932,
      0.55967,
      0.55885,
      0.55701,
      0.55856,
      0.56012,
      0.56345,
      0.56412,
      0.56651,
      0.56803,
      0.56966,
      0.57162,
      0.57254,
      0.57491,
      0.57534,
      0.5759,
      0.57786,
      0.5779,
      0.57863,
      0.58063,
      0.58095,
      0.58101,
      0.58117,
      0.582,
      0.58119,
      0.58226,
      0.58403,
      0.58528,
      0.58513,
      0.5864,
      0.58696,
      0.58631,
      0.58702,
      0.58771,
      0.5876,
      0.5886,
      0.58982,
      0.58877,
      0.58946,
      0.59088,
      0.5903,
      0.59013,
      0.59112,
      0.59021,
      0.5902,
      0.59096,
      0.59164,
      0.59312,
      0.59286,
      0.59393,
      0.59548,
      0.59507,
      0.59594,
      0.59676,
      0.59721,
      0.59786,
      0.59863,
      0.59836,
      0.59944,
      0.59968,
      0.60006,
      0.60025,
      0.60107,
      0.60075,
      0.60097,
      0.60169,
      0.60209,
      0.60226,
      0.60249,
      0.60294,
      0.60297,
      0.60319,
      0.60367,
      0.60395,
      0.60359,
      0.60428,
      0.60396,
      0.60455,
      0.60429,
      0.60472,
      0.6056,
      0.60566,
      0.60558,
      0.60584,
      0.60559,
      0.6055,
      0.60586,
      0.60609,
      0.60659,
      0.60646,
      0.60626,
      0.6063,
      0.60644,
      0.60784,
      0.60693
    ],
    "error": [
      0.01169,
      0.01035,
      0.00996,
      0.01009,
      0.01002,
      0.01112,
      0.01069,
      0.0111,
      0.00948,
      0.00955,
      0.00938,
      0.00928,
      0.00895,
      0.00939,
      0.00945,
      0.00966,
      0.00961,
      0.00974,
      0.00949,
      0.00874,
      0.00916,
      0.00887,
      0.00852,
      0.00845,
      0.00946,
      0.00967,
      0.00911,
      0.00875,
      0.00874,
      0.00943,
      0.00744,
      0.00721,
      0.0068,
      0.00667,
      0.00812,
      0.00866,
      0.00842,
      0.00806,
      0.00822,
      0.0069,
      0.0084,
      0.00707,
      0.007,
      0.00709,
      0.00827,
      0.00739,
      0.00735,
      0.00684,
      0.00777,
      0.00685,
      0.00627,
      0.00651,
      0.00552,
      0.00597,
      0.0048,
      0.00559,
      0.00582,
      0.00445,
      0.00537,
      0.00449,
      0.00525,
      0.00488,
      0.00455,
      0.00616,
      0.00427,
      0.00481,
      0.00363,
      0.00365,
      0.00436,
      0.00389,
      0.0052,
      0.00385,
      0.00485,
      0.00336,
      0.00424,
      0.00361,
      0.00435,
      0.00413,
      0.00538,
      0.00432,
      0.00544,
      0.00332,
      0.00446,
      0.00378,
      0.00512,
      0.00337,
      0.00611,
      0.00385,
      0.00576,
      0.00452,
      0.00765,
      0.00584,
      0.00785,
      0.00548,
      0.00756,
      0.007,
      0.00904,
      0.00651,
      0.01008,
      0.0074,
      0.0074,
      0.00732,
      0.00652,
      0.00767,
      0.00548,
      0.00863,
      0.00725,
      0.00878,
      0.00875,
      0.0076,
      0.00874,
      0.00677,
      0.01047,
      0.00769,
      0.0089,
      0.00798,
      0.00646,
      0.00845,
      0.00637,
      0.00576,
      0.00884,
      0.00717,
      0.00697,
      0.00945,
      0.00936,
      0.00818,
      0.0099,
      0.0122,
      0.01136,
      0.00999,
      0.01209,
      0.01145,
      0.01116,
      0.01152,
      0.01025,
      0.0098,
      0.01182,
      0.00977,
      0.00904,
      0.0115,
      0.00929,
      0.00779,
      0.00896,
      0.00915,
      0.00517,
      0.00675,
      0.00821,
      0.00612,
      0.00603,
      0.00899,
      0.00586,
      0.00484,
      0.00353,
      0.00544,
      0.00591,
      0.0044,
      0.00466,
      0.00729,
      0.00587,
      0.00457,
      0.00446,
      0.00518,
      0.00549,
      0.00424,
      0.00478,
      0.00555,
      0.00432,
      0.0047,
      0.00536,
      0.00584,
      0.00476,
      0.00463,
      0.00475,
      0.00513,
      0.00451,
      0.00504,
      0.00502,
      0.00508,
      0.00488,
      0.00525,
      0.00559,
      0.00515,
      0.00609,
      0.00709,
      0.00743,
      0.00742,
      0.00759,
      0.00716,
      0.00771,
      0.00797,
      0.00765,
      0.00845,
      0.0087,
      0.00843,
      0.00807,
      0.00778,
      0.00809,
      0.00831,
      0.00761,
      0.00772
    ]
  },
  "grain_size": {
    "min": 0,
    "max": 45,
    "unit": "micrometer"
  },
  "abundances": [],
  "description": "Spectrum downloaded from RELAB Spectral Database",
  "version": "0.0.1"
}