{
  "spectrum": {
    "wavelength": [
      400.0,
      401.0,
      402.0,
      403.0,
      404.0,
      405.0,
      406.0,
      407.0,
      408.0,
      409.0,
      410.0,
      411.0,
      412.0,
      413.0,
      414.0,
      415.0,
      416.0,
      417.0,
      418.0,
      419.0,
      420.0,
      421.0,
      422.0,
      423.0,
      424.0,
      425.0,
      426.0,
      427.0,
      428.0,
      429.0,
      430.0,
      431.0,
      432.0,
      433.0,
      434.0,
      435.0,
      436.0,
      437.0,
      438.0,
      439.0,
      440.0,
      441.0,
      442.0,
      443.0,
      444.0,
      445.0,
      446.0,
      447.0,
      448.0,
      449.0,
      450.0,
      451.0,
      452.0,
      453.0,
      454.0,
      455.0,
      456.0,
      457.0,
      458.0,
      459.0,
      460.0,
      461.0,
      462.0,
      463.0,
      464.0,
      465.0,
      466.0,
      467.0,
      468.0,
      469.0,
      470.0,
      471.0,
      472.0,
      473.0,
      474.0,
      475.0,
      476.0,
      477.0,
      478.0,
      479.0,
      480.0,
      481.0,
      482.0,
      483.0,
      484.0,
      485.0,
      486.0,
      487.0,
      488.0,
      489.0,
      490.0,
      491.0,
      492.0,
      493.0,
      494.0,
      495.0,
      496.0,
      497.0,
      498.0,
      499.0,
      500.0,
      501.0,
      502.0,
      503.0,
      504.0,
      505.0,
      506.0,
      507.0,
      508.0,
      509.0,
      510.0,
      511.0,
      512.0,
      513.0,
      514.0,
      515.0,
      516.0,
      517.0,
      518.0,
      519.0,
      520.0,
      521.0,
      522.0,
      523.0,
      524.0,
      525.0,
      526.0,
      527.0,
      528.0,
      529.0,
      530.0,
      531.0,
      532.0,
      533.0,
      534.0,
      535.0,
      536.0,
      537.0,
      538.0,
      539.0,
      540.0,
      541.0,
      542.0,
      543.0,
      544.0,
      545.0,
      546.0,
      547.0,
      548.0,
      549.0,
      550.0,
      551.0,
      552.0,
      553.0,
      554.0,
      555.0,
      556.0,
      557.0,
      558.0,
      559.0,
      560.0,
      561.0,
      562.0,
      563.0,
      564.0,
      565.0,
      566.0,
      567.0,
      568.0,
      569.0,
      570.0,
      571.0,
      572.0,
      573.0,
      574.0,
      575.0,
      576.0,
      577.0,
      578.0,
      579.0,
      580.0,
      581.0,
      582.0,
      583.0,
      584.0,
      585.0,
      586.0,
      587.0,
      588.0,
      589.0,
      590.0,
      591.0,
      592.0,
      593.0,
      594.0,
      595.0,
      596.0,
      597.0,
      598.0,
      599.0
    ],
    "reflectance": [
      0.08302,
      0.08433,
      0.08566,
      0.08705,
      0.0883,
      0.08941,
      0.0904,
      0.0915,
      0.09233,
      0.09336,
      0.09409,
      0.09495,
      0.0958,
      0.09649,
      0.09725,
      0.0981,
      0.09893,
      0.09966,
      0.10035,
      0.10126,
      0.10167,
      0.10248,
      0.10317,
      0.10359,
      0.10391,
      0.1043,
      0.10442,
      0.10461,
      0.10441,
      0.10465,
      0.10474,
      0.10465,
      0.10475,
      0.10498,
      0.10541,
      0.10576,
      0.10609,
      0.10657,
      0.10691,
      0.10733,
      0.10781,
      0.10824,
      0.10866,
      0.10905,
      0.10954,
      0.10986,
      0.1102,
      0.11043,
      0.11062,
      0.11094,
      0.11117,
      0.11157,
      0.11183,
      0.11203,
      0.11227,
      0.11264,
      0.11291,
      0.11343,
      0.1139,
      0.11448,
      0.11505,
      0.11554,
      0.11597,
      0.11632,
      0.11639,
      0.1165,
      0.1166,
      0.11649,
      0.11639,
      0.1162,
      0.11599,
      0.11611,
      0.11621,
      0.11633,
      0.11656,
      0.11674,
      0.11676,
      0.11695,
      0.11707,
      0.11691,
      0.11686,
      0.11716,
      0.11739,
      0.1179,
      0.11836,
      0.11886,
      0.11916,
      0.11946,
      0.11985,
      0.12064,
      0.12133,
      0.12214,
      0.12302,
      0.12404,
      0.12504,
      0.12586,
      0.12651,
      0.12707,
      0.12754,
      0.12786,
      0.1279,
      0.12778,
      0.12732,
      0.12663,
      0.12563,
      0.12437,
      0.12268,
      0.11989,
      0.11642,
      0.11456,
      0.11528,
      0.1172,
      0.11884,
      0.12053,
      0.1227,
      0.12463,
      0.1269,
      0.12872,
      0.13051,
      0.13175,
      0.13306,
      0.13399,
      0.13465,
      0.13555,
      0.13617,
      0.13673,
      0.13712,
      0.13764,
      0.13799,
      0.13847,
      0.13859,
      0.13911,
      0.13926,
      0.13954,
      0.13985,
      0.13996,
      0.14012,
      0.14024,
      0.14031,
      0.14028,
      0.14036,
      0.14005,
      0.13979,
      0.13966,
      0.13937,
      0.13914,
      0.1387,
      0.13844,
      0.13784,
      0.13754,
      0.13714,
      0.13704,
      0.13712,
      0.13755,
      0.13775,
      0.1385,
      0.13893,
      0.13954,
      0.14029,
      0.14091,
      0.1415,
      0.14222,
      0.14288,
      0.14333,
      0.14377,
      0.1445,
      0.14492,
      0.14522,
      0.14543,
      0.14584,
      0.14614,
      0.14659,
      0.14674,
      0.14694,
      0.1472,
      0.14764,
      0.14773,
      0.14807,
      0.14831,
      0.14852,
      0.14864,
      0.14885,
      0.14918,
      0.14936,
      0.14959,
      0.14967,
      0.14997,
      0.15003,
      0.15024,
      0.1502,
      0.15049,
      0.15054,
      0.15063,
      0.15078,
      0.15084,
      0.1508,
      0.15103,
      0.15116,
      0.15133,
      0.15144
    ],
    "error": [
      0.00156,
      0.00186,
      0.00185,
      0.00181,
      0.0018,
      0.00183,
      0.00179,
      0.00165,
      0.0017,
      0.00167,
      0.0017,
      0.00167,
      0.00162,
      0.00159,
      0.00168,
      0.00162,
      0.00158,
      0.00164,
      0.00156,
      0.0016,
      0.00158,
      0.00154,
      0.00154,
      0.00158,
      0.00158,
      0.00151,
      0.0016,
      0.00157,
      0.00166,
      0.00163,
      0.00154,
      0.00155,
      0.00158,
      0.00158,
      0.00156,
      0.00159,
      0.00159,
      0.0015,
      0.00148,
      0.00156,
      0.00156,
      0.00156,
      0.00154,
      0.00156,
      0.0017,
      0.00165,
      0.00166,
      0.00159,
      0.00161,
      0.00161,
      0.00165,
      0.00158,
      0.00162,
      0.00166,
      0.0016,
      0.00157,
      0.00151,
      0.00149,
      0.00156,
      0.0016,
      0.00158,
      0.00159,
      0.00161,
      0.00156,
      0.00171,
      0.00163,
      0.0017,
      0.00168,
      0.00158,
      0.00162,
      0.00161,
      0.00162,
      0.00161,
      0.00155,
      0.00152,
      0.0016,
      0.00178,
      0.00156,
      0.00157,
      0.00165,
      0.00161,
      0.00159,
      0.00162,
      0.00159,
      0.00165,
      0.00165,
      0.00161,
      0.00161,
      0.00157,
      0.00171,
      0.00164,
      0.00168,
      0.0017,
      0.0017,
      0.00173,
      0.00176,
      0.00187,
      0.00176,
      0.00179,
      0.00181,
      0.00179,
      0.00175,
      0.00176,
      0.00166,
      0.00167,
      0.00173,
      0.00173,
      0.00166,
      0.00162,
      0.00162,
      0.00157,
      0.0016,
      0.00168,
      0.00164,
      0.00169,
      0.00179,
      0.00182,
      0.00188,
      0.00194,
      0.00197,
      0.0019,
      0.00202,
      0.00188,
      0.00188,
      0.00203,
      0.00184,
      0.00197,
      0.00195,
      0.00182,
      0.00196,
      0.00185,
      0.00186,
      0.00204,
      0.00198,
      0.00203,
      0.00198,
      0.00202,
      0.00193,
      0.00202,
      0.00193,
      0.00211,
      0.00194,
      0.00193,
      0.00187,
      0.00181,
      0.00188,
      0.00185,
      0.00188,
      0.00179,
      0.00178,
      0.00187,
      0.00172,
      0.00178,
      0.00175,
      0.0018,
      0.00177,
      0.00178,
      0.0018,
      0.00197,
      0.00192,
      0.00193,
      0.00189,
      0.00187,
      0.0019,
      0.00185,
      0.00189,
      0.0019,
      0.00186,
      0.00194,
      0.002,
      0.00205,
      0.00207,
      0.00208,
      0.00211,
      0.00209,
      0.00213,
      0.00216,
      0.00195,
      0.00205,
      0.00203,
      0.00205,
      0.00205,
      0.00198,
      0.00205,
      0.0021,
      0.00223,
      0.0023,
      0.00215,
      0.00205,
      0.00202,
      0.00214,
      0.00221,
      0.00229,
      0.00219,
      0.00222,
      0.00233,
      0.0023,
      0.00225,
      0.00226,
      0.00218
    ]
  },
  "grain_size": {
    "min": 0,
    "max": 45,
    "unit": "micrometer"
  },
  "abundances": [],
  "description": "Spectrum downloaded from RELAB Spectral Database",
  "version": "0.0.1"
}