{
  "spectrum": {
    "wavelength": [
      400.0,
      401.0,
      402.0,
      403.0,
      404.0,
      405.0,
      406.0,
      407.0,
      408.0,
      409.0,
      410.0,
      411.0,
      412.0,
      413.0,
      414.0,
      415.0,
      416.0,
      417.0,
      418.0,
      419.0,
      420.0,
      421.0,
      422.0,
      423.0,
      424.0,
      425.0,
      426.0,
      427.0,
      428.0,
      429.0,
      430.0,
      431.0,
      432.0,
      433.0,
      434.0,
      435.0,
      436.0,
      437.0,
      438.0,
      439.0,
      440.0,
      441.0,
      442.0,
      443.0,
      444.0,
      445.0,
      446.0,
      447.0,
      448.0,
      449.0,
      450.0,
      451.0,
      452.0,
      453.0,
      454.0,
      455.0,
      456.0,
      457.0,
      458.0,
      459.0,
      460.0,
      461.0,
      462.0,
      463.0,
      464.0,
      465.0,
      466.0,
      467.0,
      468.0,
      469.0,
      470.0,
      471.0,
      472.0,
      473.0,
      474.0,
      475.0,
      476.0,
      477.0,
      478.0,
      479.0,
      480.0,
      481.0,
      482.0,
      483.0,
      484.0,
      485.0,
      486.0,
      487.0,
      488.0,
      489.0,
      490.0,
      491.0,
      492.0,
      493.0,
      494.0,
      495.0,
      496.0,
      497.0,
      498.0,
      499.0,
      500.0,
      501.0,
      502.0,
      503.0,
      504.0,
      505.0,
      506.0,
      507.0,
      508.0,
      509.0,
      510.0,
      511.0,
      512.0,
      513.0,
      514.0,
      515.0,
      516.0,
      517.0,
      518.0,
      519.0,
      520.0,
      521.0,
      522.0,
      523.0,
      524.0,
      525.0,
      526.0,
      527.0,
      528.0,
      529.0,
      530.0,
      531.0,
      532.0,
      533.0,
      534.0,
      535.0,
      536.0,
      537.0,
      538.0,
      539.0,
      540.0,
      541.0,
      542.0,
      543.0,
      544.0,
      545.0,
      546.0,
      547.0,
      548.0,
      549.0,
      550.0,
      551.0,
      552.0,
      553.0,
      554.0,
      555.0,
      556.0,
      557.0,
      558.0,
      559.0,
      560.0,
      561.0,
      562.0,
      563.0,
      564.0,
      565.0,
      566.0,
      567.0,
      568.0,
      569.0,
      570.0,
      571.0,
      572.0,
      573.0,
      574.0,
      575.0,
      576.0,
      577.0,
      578.0,
      579.0,
      580.0,
      581.0,
      582.0,
      583.0,
      584.0,
      585.0,
      586.0,
      587.0,
      588.0,
      589.0,
      590.0,
      591.0,
      592.0,
      593.0,
      594.0,
      595.0,
      596.0,
      597.0,
      598.0,
      599.0
    ],
    "reflectance": [
      0.09374,
      0.09563,
      0.09803,
      0.1007,
      0.10332,
      0.10585,
      0.10815,
      0.11019,
      0.11225,
      0.11413,
      0.1156,
      0.11682,
      0.1183,
      0.11936,
      0.12042,
      0.1218,
      0.12267,
      0.1237,
      0.12472,
      0.12585,
      0.12671,
      0.12767,
      0.12875,
      0.12986,
      0.13067,
      0.13155,
      0.13226,
      0.133,
      0.13319,
      0.13331,
      0.13333,
      0.13318,
      0.13271,
      0.13201,
      0.13126,
      0.13051,
      0.1298,
      0.12923,
      0.12903,
      0.12894,
      0.12949,
      0.13028,
      0.13105,
      0.132,
      0.13265,
      0.1337,
      0.13468,
      0.13531,
      0.13567,
      0.13646,
      0.13698,
      0.13712,
      0.13774,
      0.13815,
      0.13849,
      0.13891,
      0.13929,
      0.13981,
      0.14034,
      0.14107,
      0.14199,
      0.14296,
      0.1433,
      0.14399,
      0.14451,
      0.14454,
      0.14487,
      0.14485,
      0.14483,
      0.14478,
      0.14443,
      0.14426,
      0.14415,
      0.1442,
      0.14437,
      0.14453,
      0.14461,
      0.14528,
      0.14545,
      0.14584,
      0.14636,
      0.14691,
      0.14715,
      0.14773,
      0.14804,
      0.14847,
      0.14886,
      0.14924,
      0.14942,
      0.15042,
      0.15122,
      0.15223,
      0.15358,
      0.15526,
      0.15704,
      0.15834,
      0.15957,
      0.16023,
      0.16095,
      0.16103,
      0.16183,
      0.16149,
      0.16131,
      0.16029,
      0.15885,
      0.15746,
      0.15528,
      0.15177,
      0.14753,
      0.14208,
      0.13638,
      0.13246,
      0.13136,
      0.1332,
      0.13748,
      0.14224,
      0.1476,
      0.15164,
      0.15585,
      0.15985,
      0.16316,
      0.16607,
      0.16837,
      0.17054,
      0.17238,
      0.17407,
      0.17535,
      0.177,
      0.1778,
      0.17898,
      0.18005,
      0.18057,
      0.1818,
      0.18284,
      0.18316,
      0.18392,
      0.18387,
      0.18398,
      0.18446,
      0.18456,
      0.18479,
      0.1848,
      0.18426,
      0.184,
      0.18331,
      0.18235,
      0.18144,
      0.18036,
      0.1783,
      0.17745,
      0.17535,
      0.17403,
      0.17289,
      0.17292,
      0.17361,
      0.17506,
      0.17728,
      0.17965,
      0.18197,
      0.18435,
      0.18618,
      0.18842,
      0.19019,
      0.19142,
      0.19305,
      0.19455,
      0.19476,
      0.19436,
      0.19511,
      0.19571,
      0.19624,
      0.1962,
      0.19717,
      0.19763,
      0.19768,
      0.19863,
      0.19838,
      0.19819,
      0.19874,
      0.19885,
      0.19846,
      0.19846,
      0.19771,
      0.19823,
      0.19832,
      0.19833,
      0.19818,
      0.19887,
      0.19888,
      0.19938,
      0.19995,
      0.20014,
      0.20021,
      0.20061,
      0.20085,
      0.20098,
      0.20151,
      0.20115,
      0.20123,
      0.20145
    ],
    "error": [
      0.00218,
      0.00252,
      0.00249,
      0.00236,
      0.00223,
      0.00233,
      0.00245,
      0.00274,
      0.00256,
      0.00236,
      0.00227,
      0.00224,
      0.00235,
      0.00211,
      0.00208,
      0.00229,
      0.00223,
      0.00239,
      0.00205,
      0.00211,
      0.00219,
      0.0022,
      0.00207,
      0.00183,
      0.00177,
      0.00205,
      0.00217,
      0.00189,
      0.00185,
      0.00202,
      0.0021,
      0.00178,
      0.00164,
      0.00184,
      0.00205,
      0.00196,
      0.00181,
      0.00184,
      0.00217,
      0.00204,
      0.00176,
      0.00193,
      0.00193,
      0.00211,
      0.00207,
      0.00178,
      0.0019,
      0.00202,
      0.00219,
      0.00196,
      0.00167,
      0.0018,
      0.00203,
      0.00227,
      0.00195,
      0.00193,
      0.00186,
      0.00216,
      0.00208,
      0.00203,
      0.0021,
      0.00221,
      0.00211,
      0.0019,
      0.00222,
      0.00232,
      0.00197,
      0.002,
      0.00199,
      0.00206,
      0.0019,
      0.00173,
      0.0018,
      0.00203,
      0.00187,
      0.00159,
      0.00177,
      0.00191,
      0.0022,
      0.00172,
      0.00171,
      0.00179,
      0.00165,
      0.00161,
      0.00152,
      0.00181,
      0.00174,
      0.00158,
      0.00184,
      0.00205,
      0.00177,
      0.00198,
      0.00222,
      0.00181,
      0.00169,
      0.00205,
      0.00187,
      0.00187,
      0.00193,
      0.00221,
      0.00184,
      0.00226,
      0.00187,
      0.00184,
      0.00219,
      0.00172,
      0.00181,
      0.00191,
      0.00139,
      0.00137,
      0.00147,
      0.00147,
      0.00124,
      0.0013,
      0.00156,
      0.00109,
      0.00099,
      0.00123,
      0.00126,
      0.00101,
      0.00124,
      0.00105,
      0.00113,
      0.00138,
      0.00115,
      0.00133,
      0.00129,
      0.00108,
      0.00131,
      0.00156,
      0.00128,
      0.00188,
      0.00188,
      0.00133,
      0.002,
      0.00181,
      0.00189,
      0.00266,
      0.0022,
      0.0023,
      0.00244,
      0.00187,
      0.00235,
      0.00234,
      0.0019,
      0.00246,
      0.00246,
      0.00203,
      0.00278,
      0.00172,
      0.00211,
      0.00152,
      0.00191,
      0.00193,
      0.00163,
      0.00265,
      0.00206,
      0.00198,
      0.00253,
      0.0021,
      0.00257,
      0.00234,
      0.00207,
      0.0025,
      0.00206,
      0.00206,
      0.00223,
      0.00239,
      0.00262,
      0.00246,
      0.00235,
      0.0031,
      0.0027,
      0.00292,
      0.00275,
      0.00272,
      0.00283,
      0.0023,
      0.0038,
      0.00342,
      0.0033,
      0.00357,
      0.00354,
      0.00389,
      0.00356,
      0.00322,
      0.00396,
      0.00319,
      0.00342,
      0.00285,
      0.00282,
      0.00278,
      0.00231,
      0.00254,
      0.00198,
      0.00256,
      0.00203,
      0.00241,
      0.00238,
      0.00236
    ]
  },
  "grain_size": {
    "min": 0,
    "max": 45,
    "unit": "micrometer"
  },
  "abundances": [],
  "description": "Spectrum downloaded from RELAB Spectral Database",
  "version": "0.0.1"
}