{
  "spectrum": {
    "wavelength": [
      400.0,
      401.0,
      402.0,
      403.0,
      404.0,
      405.0,
      406.0,
      407.0,
      408.0,
      409.0,
      410.0,
      411.0,
      412.0,
      413.0,
      414.0,
      415.0,
      416.0,
      417.0,
      418.0,
      419.0,
      420.0,
      421.0,
      422.0,
      423.0,
      424.0,
      425.0,
      426.0,
      427.0,
      428.0,
      429.0,
      430.0,
      431.0,
      432.0,
      433.0,
      434.0,
      435.0,
      436.0,
      437.0,
      438.0,
      439.0,
      440.0,
      441.0,
      442.0,
      443.0,
      444.0,
      445.0,
      446.0,
      447.0,
      448.0,
      449.0,
      450.0,
      451.0,
      452.0,
      453.0,
      454.0,
      455.0,
      456.0,
      457.0,
      458.0,
      459.0,
      460.0,
      461.0,
      462.0,
      463.0,
      464.0,
      465.0,
      466.0,
      467.0,
      468.0,
      469.0,
      470.0,
      471.0,
      472.0,
      473.0,
      474.0,
      475.0,
      476.0,
      477.0,
      478.0,
      479.0,
      480.0,
      481.0,
      482.0,
      483.0,
      484.0,
      485.0,
      486.0,
      487.0,
      488.0,
      489.0,
      490.0,
      491.0,
      492.0,
      493.0,
      494.0,
      495.0,
      496.0,
      497.0,
      498.0,
      499.0,
      500.0,
      501.0,
      502.0,
      503.0,
      504.0,
      505.0,
      506.0,
      507.0,
      508.0,
      509.0,
      510.0,
      511.0,
      512.0,
      513.0,
      514.0,
      515.0,
      516.0,
      517.0,
      518.0,
      519.0,
      520.0,
      521.0,
      522.0,
      523.0,
      524.0,
      525.0,
      526.0,
      527.0,
      528.0,
      529.0,
      530.0,
      531.0,
      532.0,
      533.0,
      534.0,
      535.0,
      536.0,
      537.0,
      538.0,
      539.0,
      540.0,
      541.0,
      542.0,
      543.0,
      544.0,
      545.0,
      546.0,
      547.0,
      548.0,
      549.0,
      550.0,
      551.0,
      552.0,
      553.0,
      554.0,
      555.0,
      556.0,
      557.0,
      558.0,
      559.0,
      560.0,
      561.0,
      562.0,
      563.0,
      564.0,
      565.0,
      566.0,
      567.0,
      568.0,
      569.0,
      570.0,
      571.0,
      572.0,
      573.0,
      574.0,
      575.0,
      576.0,
      577.0,
      578.0,
      579.0,
      580.0,
      581.0,
      582.0,
      583.0,
      584.0,
      585.0,
      586.0,
      587.0,
      588.0,
      589.0,
      590.0,
      591.0,
      592.0,
      593.0,
      594.0,
      595.0,
      596.0,
      597.0,
      598.0,
      599.0
    ],
    "reflectance": [
      0.10324,
      0.10501,
      0.10652,
      0.10768,
      0.10938,
      0.11078,
      0.11212,
      0.11353,
      0.11472,
      0.11591,
      0.11684,
      0.11792,
      0.11882,
      0.11963,
      0.12063,
      0.1213,
      0.122,
      0.12288,
      0.1236,
      0.12414,
      0.12501,
      0.12558,
      0.12639,
      0.12688,
      0.12754,
      0.12782,
      0.12836,
      0.12863,
      0.12889,
      0.12903,
      0.12906,
      0.12918,
      0.12917,
      0.12899,
      0.12895,
      0.12876,
      0.12865,
      0.12861,
      0.1285,
      0.12843,
      0.12844,
      0.12851,
      0.12864,
      0.12871,
      0.12876,
      0.12883,
      0.12894,
      0.12895,
      0.12896,
      0.12895,
      0.12898,
      0.12918,
      0.12936,
      0.12939,
      0.12938,
      0.12973,
      0.1301,
      0.13061,
      0.13088,
      0.13132,
      0.1319,
      0.13257,
      0.13313,
      0.13377,
      0.13432,
      0.13482,
      0.13538,
      0.13599,
      0.13667,
      0.1371,
      0.13752,
      0.13827,
      0.13877,
      0.13933,
      0.1399,
      0.14045,
      0.14103,
      0.14143,
      0.14186,
      0.14239,
      0.14308,
      0.14344,
      0.14409,
      0.14464,
      0.14496,
      0.14533,
      0.14588,
      0.14629,
      0.14687,
      0.14789,
      0.14836,
      0.14924,
      0.15022,
      0.15108,
      0.15191,
      0.15293,
      0.15376,
      0.15464,
      0.15548,
      0.15605,
      0.1569,
      0.15748,
      0.15785,
      0.15833,
      0.15872,
      0.15856,
      0.15815,
      0.15751,
      0.15626,
      0.15537,
      0.15513,
      0.15564,
      0.1571,
      0.15908,
      0.16171,
      0.16412,
      0.16643,
      0.16864,
      0.17069,
      0.17227,
      0.1741,
      0.17554,
      0.17688,
      0.17822,
      0.17945,
      0.18065,
      0.18168,
      0.18294,
      0.18385,
      0.18501,
      0.18604,
      0.18667,
      0.18768,
      0.18846,
      0.18941,
      0.18994,
      0.19059,
      0.19154,
      0.19216,
      0.19247,
      0.19323,
      0.19351,
      0.19397,
      0.19411,
      0.19423,
      0.19451,
      0.19473,
      0.19464,
      0.19457,
      0.19452,
      0.19458,
      0.19461,
      0.19507,
      0.19588,
      0.19643,
      0.19756,
      0.1986,
      0.19988,
      0.20092,
      0.2022,
      0.2031,
      0.20397,
      0.20483,
      0.20584,
      0.20656,
      0.20751,
      0.20838,
      0.2089,
      0.20976,
      0.21034,
      0.21079,
      0.21137,
      0.2118,
      0.21234,
      0.21291,
      0.21317,
      0.2136,
      0.21424,
      0.21484,
      0.21518,
      0.21545,
      0.21575,
      0.2163,
      0.21665,
      0.21706,
      0.21723,
      0.21778,
      0.21796,
      0.21821,
      0.2187,
      0.21911,
      0.21924,
      0.21967,
      0.21978,
      0.22014,
      0.22041,
      0.2208,
      0.22083,
      0.22118,
      0.22141
    ],
    "error": [
      0.00302,
      0.00293,
      0.00274,
      0.00269,
      0.00264,
      0.00253,
      0.00249,
      0.00243,
      0.0024,
      0.00229,
      0.00232,
      0.00221,
      0.0021,
      0.00209,
      0.00206,
      0.00196,
      0.00194,
      0.00197,
      0.00193,
      0.00193,
      0.00193,
      0.00187,
      0.00186,
      0.00184,
      0.00183,
      0.00189,
      0.00189,
      0.00185,
      0.0018,
      0.00177,
      0.00182,
      0.00181,
      0.00176,
      0.0017,
      0.00178,
      0.00176,
      0.00175,
      0.00173,
      0.00164,
      0.00172,
      0.00171,
      0.00172,
      0.0017,
      0.00165,
      0.00167,
      0.00172,
      0.00169,
      0.00164,
      0.00168,
      0.00165,
      0.00162,
      0.00165,
      0.00165,
      0.00155,
      0.00159,
      0.00161,
      0.00157,
      0.00165,
      0.00156,
      0.0016,
      0.00159,
      0.00163,
      0.00156,
      0.00162,
      0.00162,
      0.00162,
      0.00163,
      0.00157,
      0.00169,
      0.00154,
      0.00169,
      0.00169,
      0.00165,
      0.00168,
      0.00168,
      0.00159,
      0.00163,
      0.00163,
      0.00169,
      0.00168,
      0.00163,
      0.00162,
      0.00162,
      0.00161,
      0.00164,
      0.00168,
      0.00167,
      0.00165,
      0.00164,
      0.00168,
      0.00161,
      0.0017,
      0.00168,
      0.00171,
      0.00172,
      0.00171,
      0.00171,
      0.00173,
      0.00167,
      0.0017,
      0.00171,
      0.00182,
      0.00183,
      0.00178,
      0.00175,
      0.00179,
      0.0018,
      0.00182,
      0.00177,
      0.00174,
      0.00172,
      0.00172,
      0.00169,
      0.00175,
      0.00177,
      0.00169,
      0.00169,
      0.00178,
      0.00187,
      0.00181,
      0.00179,
      0.00187,
      0.00183,
      0.00181,
      0.00186,
      0.00183,
      0.00187,
      0.00185,
      0.00191,
      0.00181,
      0.00185,
      0.00183,
      0.00194,
      0.00192,
      0.00197,
      0.00193,
      0.00201,
      0.00192,
      0.00202,
      0.00199,
      0.00204,
      0.00207,
      0.00191,
      0.002,
      0.00189,
      0.00197,
      0.00199,
      0.00194,
      0.0019,
      0.00189,
      0.00199,
      0.00193,
      0.00189,
      0.00199,
      0.00201,
      0.00198,
      0.00204,
      0.002,
      0.00202,
      0.00204,
      0.00197,
      0.00197,
      0.00201,
      0.00208,
      0.00198,
      0.00195,
      0.00197,
      0.00198,
      0.00198,
      0.00205,
      0.00201,
      0.00213,
      0.00221,
      0.00199,
      0.00201,
      0.00209,
      0.00211,
      0.00196,
      0.00203,
      0.00205,
      0.002,
      0.00204,
      0.002,
      0.00207,
      0.00204,
      0.00208,
      0.00207,
      0.00202,
      0.00203,
      0.0021,
      0.00202,
      0.00215,
      0.00204,
      0.00207,
      0.00214,
      0.00211,
      0.00203,
      0.00209,
      0.00211,
      0.00202
    ]
  },
  "grain_size": {
    "min": 0,
    "max": 45,
    "unit": "micrometer"
  },
  "abundances": [],
  "description": "Spectrum downloaded from RELAB Spectral Database",
  "version": "0.0.1"
}