{
  "spectrum": {
    "wavelength": [
      400.0,
      401.0,
      402.0,
      403.0,
      404.0,
      405.0,
      406.0,
      407.0,
      408.0,
      409.0,
      410.0,
      411.0,
      412.0,
      413.0,
      414.0,
      415.0,
      416.0,
      417.0,
      418.0,
      419.0,
      420.0,
      421.0,
      422.0,
      423.0,
      424.0,
      425.0,
      426.0,
      427.0,
      428.0,
      429.0,
      430.0,
      431.0,
      432.0,
      433.0,
      434.0,
      435.0,
      436.0,
      437.0,
      438.0,
      439.0,
      440.0,
      441.0,
      442.0,
      443.0,
      444.0,
      445.0,
      446.0,
      447.0,
      448.0,
      449.0,
      450.0,
      451.0,
      452.0,
      453.0,
      454.0,
      455.0,
      456.0,
      457.0,
      458.0,
      459.0,
      460.0,
      461.0,
      462.0,
      463.0,
      464.0,
      465.0,
      466.0,
      467.0,
      468.0,
      469.0,
      470.0,
      471.0,
      472.0,
      473.0,
      474.0,
      475.0,
      476.0,
      477.0,
      478.0,
      479.0,
      480.0,
      481.0,
      482.0,
      483.0,
      484.0,
      485.0,
      486.0,
      487.0,
      488.0,
      489.0,
      490.0,
      491.0,
      492.0,
      493.0,
      494.0,
      495.0,
      496.0,
      497.0,
      498.0,
      499.0,
      500.0,
      501.0,
      502.0,
      503.0,
      504.0,
      505.0,
      506.0,
      507.0,
      508.0,
      509.0,
      510.0,
      511.0,
      512.0,
      513.0,
      514.0,
      515.0,
      516.0,
      517.0,
      518.0,
      519.0,
      520.0,
      521.0,
      522.0,
      523.0,
      524.0,
      525.0,
      526.0,
      527.0,
      528.0,
      529.0,
      530.0,
      531.0,
      532.0,
      533.0,
      534.0,
      535.0,
      536.0,
      537.0,
      538.0,
      539.0,
      540.0,
      541.0,
      542.0,
      543.0,
      544.0,
      545.0,
      546.0,
      547.0,
      548.0,
      549.0,
      550.0,
      551.0,
      552.0,
      553.0,
      554.0,
      555.0,
      556.0,
      557.0,
      558.0,
      559.0,
      560.0,
      561.0,
      562.0,
      563.0,
      564.0,
      565.0,
      566.0,
      567.0,
      568.0,
      569.0,
      570.0,
      571.0,
      572.0,
      573.0,
      574.0,
      575.0,
      576.0,
      577.0,
      578.0,
      579.0,
      580.0,
      581.0,
      582.0,
      583.0,
      584.0,
      585.0,
      586.0,
      587.0,
      588.0,
      589.0,
      590.0,
      591.0,
      592.0,
      593.0,
      594.0,
      595.0,
      596.0,
      597.0,
      598.0,
      599.0
    ],
    "reflectance": [
      0.28344,
      0.28965,
      0.29292,
      0.29652,
      0.29994,
      0.30273,
      0.30602,
      0.30902,
      0.31134,
      0.31415,
      0.31666,
      0.3195,
      0.32159,
      0.3236,
      0.32641,
      0.32815,
      0.33034,
      0.3324,
      0.33375,
      0.33538,
      0.33701,
      0.33817,
      0.33799,
      0.33825,
      0.33805,
      0.33726,
      0.33586,
      0.3352,
      0.33434,
      0.33426,
      0.33613,
      0.33706,
      0.33922,
      0.3418,
      0.34336,
      0.34581,
      0.34738,
      0.34932,
      0.3503,
      0.35134,
      0.35272,
      0.35388,
      0.35397,
      0.35498,
      0.35539,
      0.35556,
      0.35579,
      0.35573,
      0.35711,
      0.35705,
      0.35785,
      0.35834,
      0.35862,
      0.35929,
      0.3607,
      0.36098,
      0.36224,
      0.36297,
      0.36531,
      0.36746,
      0.36841,
      0.37002,
      0.37118,
      0.3719,
      0.37254,
      0.37226,
      0.37247,
      0.37324,
      0.37321,
      0.37357,
      0.37403,
      0.37482,
      0.37583,
      0.37692,
      0.37768,
      0.37784,
      0.37841,
      0.37886,
      0.3778,
      0.37806,
      0.3775,
      0.37794,
      0.37871,
      0.37907,
      0.37985,
      0.38053,
      0.38122,
      0.3818,
      0.38286,
      0.38396,
      0.3856,
      0.38774,
      0.39021,
      0.39277,
      0.39514,
      0.39743,
      0.39907,
      0.39971,
      0.4012,
      0.40128,
      0.40009,
      0.39776,
      0.39556,
      0.39181,
      0.38528,
      0.37345,
      0.36248,
      0.35784,
      0.36124,
      0.36983,
      0.37788,
      0.38458,
      0.39121,
      0.39755,
      0.4039,
      0.4102,
      0.41494,
      0.41906,
      0.42205,
      0.42467,
      0.42671,
      0.42825,
      0.43025,
      0.43151,
      0.43266,
      0.43339,
      0.43455,
      0.43481,
      0.43619,
      0.43676,
      0.43708,
      0.43775,
      0.43745,
      0.43792,
      0.43748,
      0.43774,
      0.43779,
      0.43687,
      0.4364,
      0.43536,
      0.43389,
      0.43253,
      0.43129,
      0.42975,
      0.4284,
      0.4267,
      0.42557,
      0.42441,
      0.4236,
      0.42354,
      0.42434,
      0.42501,
      0.42701,
      0.42826,
      0.43102,
      0.43294,
      0.43506,
      0.43716,
      0.43942,
      0.44129,
      0.44281,
      0.4447,
      0.44587,
      0.44746,
      0.44874,
      0.44933,
      0.45079,
      0.45149,
      0.45282,
      0.4534,
      0.45454,
      0.45525,
      0.45535,
      0.45657,
      0.45686,
      0.4577,
      0.45826,
      0.45871,
      0.45929,
      0.46044,
      0.46062,
      0.46069,
      0.46188,
      0.46227,
      0.46248,
      0.46287,
      0.4634,
      0.46404,
      0.46453,
      0.46497,
      0.46551,
      0.46559,
      0.46592,
      0.46641,
      0.46645,
      0.46717,
      0.46748,
      0.46724,
      0.46773,
      0.46804
    ],
    "error": [
      0.00651,
      0.00652,
      0.00681,
      0.00685,
      0.00689,
      0.00684,
      0.00703,
      0.00697,
      0.00743,
      0.0071,
      0.00738,
      0.00734,
      0.0076,
      0.00749,
      0.00756,
      0.00762,
      0.00721,
      0.00761,
      0.00731,
      0.00769,
      0.00751,
      0.00755,
      0.00742,
      0.00719,
      0.00729,
      0.00691,
      0.00712,
      0.00696,
      0.00707,
      0.00657,
      0.00687,
      0.00674,
      0.00705,
      0.00712,
      0.0066,
      0.00694,
      0.0066,
      0.00686,
      0.00682,
      0.00703,
      0.00692,
      0.00682,
      0.00688,
      0.00678,
      0.00698,
      0.00655,
      0.00652,
      0.00616,
      0.00657,
      0.0063,
      0.0066,
      0.00677,
      0.0067,
      0.00695,
      0.00636,
      0.00614,
      0.00645,
      0.00627,
      0.00671,
      0.00634,
      0.00625,
      0.00643,
      0.00626,
      0.00664,
      0.00629,
      0.00643,
      0.00646,
      0.00613,
      0.0067,
      0.00628,
      0.00619,
      0.00645,
      0.00604,
      0.00654,
      0.00669,
      0.00622,
      0.00666,
      0.007,
      0.00638,
      0.00696,
      0.00713,
      0.00708,
      0.00681,
      0.00728,
      0.00699,
      0.00617,
      0.00695,
      0.00688,
      0.00653,
      0.00688,
      0.00699,
      0.0065,
      0.00646,
      0.00642,
      0.00654,
      0.00679,
      0.00684,
      0.00668,
      0.00708,
      0.00764,
      0.00744,
      0.00708,
      0.00765,
      0.00732,
      0.00752,
      0.00787,
      0.00702,
      0.00695,
      0.00711,
      0.00759,
      0.00751,
      0.00779,
      0.00837,
      0.00817,
      0.00836,
      0.00891,
      0.00899,
      0.00871,
      0.00996,
      0.00987,
      0.00929,
      0.01008,
      0.00997,
      0.00884,
      0.00967,
      0.00951,
      0.00946,
      0.00929,
      0.00897,
      0.00965,
      0.00918,
      0.00913,
      0.0096,
      0.00965,
      0.00917,
      0.00963,
      0.00914,
      0.00886,
      0.0096,
      0.00922,
      0.00906,
      0.00941,
      0.0094,
      0.00892,
      0.00892,
      0.00906,
      0.00876,
      0.00906,
      0.00862,
      0.00879,
      0.00939,
      0.00932,
      0.00888,
      0.00804,
      0.00835,
      0.00864,
      0.00913,
      0.0088,
      0.00928,
      0.00998,
      0.00917,
      0.00922,
      0.00936,
      0.00989,
      0.00944,
      0.00895,
      0.00919,
      0.00945,
      0.00908,
      0.00883,
      0.0094,
      0.00988,
      0.0097,
      0.00868,
      0.00956,
      0.00988,
      0.00998,
      0.00998,
      0.0096,
      0.01014,
      0.01028,
      0.01048,
      0.01018,
      0.01028,
      0.01028,
      0.01008,
      0.00991,
      0.01012,
      0.0105,
      0.0107,
      0.01061,
      0.01046,
      0.01099,
      0.01095,
      0.01071,
      0.01098,
      0.01168,
      0.01136,
      0.01074,
      0.00991
    ]
  },
  "grain_size": {
    "min": 0,
    "max": 45,
    "unit": "micrometer"
  },
  "abundances": [],
  "description": "Spectrum downloaded from RELAB Spectral Database",
  "version": "0.0.1"
}